/data/ops/data/incoming/CL0_404238492EDR_F0050104CCAM02076M2_spect.TXT
 
Spectrometer Setup:
spectControlByte: 2
imageType: 3
spectromerSerialClock: 1
spectromerSelect: 14
IPBCdivisor: 3300
ICTdivisor: 300
startRowUV: 100
stopRowUV: 300
startRowVIS: 75
stopRowVIS: 275
startRowVNIR: 100
stopRowVNIR: 300
VNIRtriggerDelay: 5
VIStriggerDelay: 5
UVtriggerDelay: 5
verticalClockSelect: 2
 
DOLIBS setup:
focusAlgorithm: 0
controlWord: 0
fromLimitSwitch: 0
NshotsToIgnore: 0
NshotsToAverage: 5
Nshots: 1
distToTarget: 1582
>>>>>Begin Processed Spectral Data<<<<<
      341.200
      338.200
      339.000
      338.600
      338.600
      338.600
      338.000
      338.800
      338.800
      339.600
      337.800
      338.600
      337.200
      337.800
      338.000
      339.400
      339.800
      338.800
      337.200
      338.000
      338.800
      338.400
      337.800
      338.000
      337.600
      337.000
      336.800
      338.400
      338.400
      337.800
      336.800
      337.600
      338.200
      337.200
      338.400
      337.400
      337.600
      338.000
      336.800
      338.400
      337.600
      338.200
      337.600
      335.400
      336.800
      337.000
      337.200
      337.200
      337.800
      337.000
       766.75449
       783.24577
       809.49074
       836.78348
       850.41475
       884.58077
       914.67900
       921.42627
       943.46957
       970.36626
       985.41065
       1000.8141
       1030.6387
       1044.9855
       1060.1365
       1073.7376
       1106.5164
       1145.1244
       1164.8998
       1192.0230
       1216.1997
       1235.7176
       1246.5863
       1249.2513
       1245.5296
       1248.6103
       1259.4962
       1303.4872
       1327.6441
       1330.3094
       1324.5916
       1321.9470
       1333.8353
       1332.3791
       1330.6051
       1343.7809
       1351.5690
       1361.1430
       1377.1463
       1380.3092
       1366.9161
       1353.1796
       1361.5429
       1362.3938
       1353.7994
       1379.9625
       1386.1010
       1363.8179
       1356.0511
       1355.4736
       1365.4654
       1381.7510
       1377.7651
       1366.8437
       1348.5642
       1319.6664
       1273.4339
       1226.0353
       1203.5993
       1261.3855
       1341.2673
       1368.4130
       1375.1073
       1394.3830
       1418.9217
       1450.2083
       1477.4416
       1483.1636
       1480.4678
       1467.6236
       1471.2095
       1497.9123
       1559.6562
       1620.7620
       1635.4531
       1641.7327
       1640.6707
       1651.3268
       1666.5023
       1675.2000
       1699.5321
       1716.3972
       1710.8349
       1673.3957
       1677.4361
       1745.8290
       1822.9586
       1878.3143
       1924.2338
       1945.7534
       1939.7779
       1950.6430
       1983.9753
       2067.5948
       2124.7857
       2174.8895
       2218.7995
       2247.4851
       2263.5777
       2246.2654
       2243.5980
       2304.4419
       2403.2814
       2448.2697
       2454.7433
       2474.4806
       2517.8100
       2584.0381
       2627.0780
       2617.7054
       2568.8503
       2520.4239
       2534.5259
       2635.4970
       2743.0918
       2782.4332
       2808.1277
       2850.7084
       2868.5333
       2842.5771
       2816.0701
       2823.3725
       2841.2264
       2916.4331
       2945.1328
       2900.4881
       2883.4158
       2941.5980
       3008.1170
       3069.0598
       3120.5107
       3161.4461
       3216.0020
       3287.9759
       3324.9437
       3293.5111
       3227.8430
       3158.3217
       3213.8567
       3380.9230
       3468.3241
       3425.4709
       3409.3026
       3497.4032
       3582.6552
       3629.7892
       3667.8535
       3654.8119
       3594.8930
       3569.8407
       3616.9659
       3633.4819
       3618.5364
       3627.7040
       3573.9432
       3521.8962
       3571.0432
       3689.9933
       3761.0501
       3805.6420
       3847.2705
       3851.9780
       3780.6749
       3685.6995
       3718.2823
       3809.6337
       3815.3740
       3772.8099
       3772.2619
       3838.3325
       3930.8355
       3962.9650
       3961.1984
       3910.5736
       3798.7225
       3743.7025
       3767.5923
       3798.6429
       3824.2982
       3826.6866
       3808.6229
       3754.7071
       3725.8295
       3774.6686
       3826.7595
       3856.3750
       3882.7289
       3898.2305
       3940.0545
       3996.5708
       4001.3942
       3958.2487
       3797.8401
       3581.6728
       3427.8591
       3433.3558
       3516.8984
       3737.3693
       3999.1968
       4060.5706
       3871.5275
       3667.8012
       3783.5614
       4058.0158
       4161.5291
       4147.8659
       4215.7360
       4314.9560
       4406.6132
       4408.2435
       4355.9501
       4310.7341
       4323.4057
       4440.4603
       4529.7324
       4524.4969
       4504.5055
       4570.3585
       4582.6654
       4460.6047
       4324.0436
       4322.1263
       4417.1550
       4462.5505
       4511.1719
       4612.9444
       4696.3747
       4711.3003
       4690.6676
       4655.5945
       4606.5737
       4582.0841
       4587.7744
       4614.7339
       4641.8257
       4577.9244
       4373.1274
       4160.4297
       4067.4448
       4080.2531
       4164.9597
       4313.6143
       4459.9919
       4586.2338
       4615.9434
       4584.9694
       4635.3026
       4783.9740
       4878.9417
       4925.7663
       4897.4642
       4787.6794
       4699.7999
       4731.4582
       4849.6917
       4962.4783
       5047.3913
       5099.0653
       5138.3986
       5120.3323
       5065.8665
       5044.6409
       5054.7404
       4995.4505
       4863.7496
       4728.0147
       4702.4804
       4918.2201
       5119.3980
       5170.6991
       5126.7538
       5042.4073
       5053.4176
       5128.4063
       5174.2150
       5160.5401
       5213.6744
       5321.1537
       5388.7873
       5442.3286
       5405.0394
       5296.4147
       5191.7924
       5122.8318
       5059.2036
       5015.5246
       5140.5550
       5305.3790
       5350.2053
       5315.1408
       5272.2813
       5272.5447
       5302.6133
       5274.9162
       5193.6394
       5153.0578
       5144.3760
       5132.1186
       5148.4962
       5138.4768
       5047.3765
       5049.5980
       5153.1884
       5231.8691
       5317.6267
       5395.9287
       5459.3744
       5482.8669
       5465.9286
       5461.2464
       5512.1200
       5516.0296
       5506.0561
       5560.6825
       5636.4168
       5785.6263
       5907.8349
       5913.9965
       5845.4001
       5781.2315
       5888.8126
       6037.7863
       6019.4633
       5975.6643
       6044.2923
       6122.1815
       6102.1460
       6093.1716
       6185.5742
       6237.9335
       6263.2009
       6176.9616
       6069.4640
       6069.6382
       6173.5060
       6265.5179
       6358.5049
       6411.4774
       6419.4372
       6444.1177
       6460.2854
       6453.8831
       6468.0324
       6489.2135
       6467.2774
       6466.7690
       6471.4598
       6479.5095
       6474.4860
       6498.0102
       6574.6540
       6636.9422
       6674.4330
       6652.9732
       6580.1985
       6486.5316
       6469.6310
       6593.2990
       6679.7443
       6719.2685
       6769.1243
       6806.1202
       6823.0636
       6847.0963
       6912.6409
       6987.5025
       7021.2351
       6986.5542
       6992.0954
       7045.0514
       7051.2162
       7041.1474
       7035.5160
       7042.2671
       7045.0411
       7071.0524
       7125.8201
       7185.3241
       7283.4957
       7359.4105
       7343.3111
       7248.4839
       7092.8792
       7033.9338
       7138.3536
       7254.5333
       7339.7889
       7376.2890
       7330.4203
       7315.5311
       7464.0069
       7690.9796
       7789.6030
       7787.0935
       7661.1624
       7437.1061
       7376.2906
       7532.4959
       7642.9193
       7590.5252
       7560.9051
       7660.1769
       7739.5207
       7686.6758
       7593.0440
       7509.3800
       7457.5207
       7414.7288
       7406.3262
       7402.9188
       7380.4748
       7255.0118
       7107.9290
       6945.4536
       6768.5180
       6638.1034
       6629.2775
       6661.5864
       6704.0260
       6736.7321
       6781.7253
       6857.3647
       6898.1041
       6911.3152
       6914.8570
       6888.7888
       6844.6486
       6846.1565
       6899.9155
       6993.4060
       7099.4627
       7160.5677
       7184.1748
       7211.9910
       7247.7942
       7269.4804
       7297.6034
       7308.3413
       7340.3825
       7504.7651
       7755.2023
       7928.7564
       8040.2007
       8153.0890
       8239.6365
       8279.1724
       8292.8577
       8306.8651
       8325.4190
       8383.4670
       8433.4649
       8444.7499
       8458.7172
       8466.9005
       8460.7968
       8434.0775
       8417.0961
       8374.2710
       8363.1046
       8416.8959
       8513.8463
       8546.5907
       8534.2205
       8611.0271
       8697.9498
       8701.4289
       8642.8626
       8589.9917
       8552.7732
       8505.9967
       8376.0521
       8262.4380
       8238.3205
       8265.0251
       8284.8926
       8217.9922
       8159.5459
       8115.6626
       8068.4259
       8005.7241
       7928.1515
       7859.3964
       7834.6269
       7902.5972
       8017.0251
       8113.6316
       8235.6475
       8468.2729
       8751.1446
       9010.0572
       9224.3573
       9438.9069
       9639.7979
       9813.8982
       9960.6135
       10100.843
       10219.900
       10378.875
       10507.028
       10578.910
       10596.639
       10602.783
       10645.962
       10626.120
       10611.850
       10586.401
       10677.465
       10855.454
       11020.042
       11144.863
       11228.814
       11300.378
       11360.243
       11380.459
       11403.530
       11390.035
       11345.578
       11262.767
       11083.583
       10733.379
       10333.272
       10432.450
       10686.727
       10785.091
       11148.171
       11517.624
       11657.848
       11652.760
       11653.864
       11648.379
       11642.260
       11560.668
       11566.108
       11684.558
       11743.696
       11721.347
       11695.619
       11639.663
       11543.997
       11563.437
       11626.027
       11668.855
       11732.734
       11713.863
       11655.220
       11644.710
       11570.758
       11501.649
       11493.847
       11517.698
       11579.001
       11575.915
       11609.912
       11640.130
       11649.833
       11625.390
       11601.930
       11585.013
       11542.333
       11418.331
       11342.550
       11390.262
       11373.204
       11266.227
       11252.672
       11326.866
       11406.084
       11424.824
       11400.933
       11335.013
       11283.612
       11261.228
       11206.446
       11145.953
       11084.622
       11114.761
       11116.139
       11065.109
       11026.173
       10984.894
       10959.919
       11021.388
       11111.784
       11217.903
       11300.007
       11343.918
       11360.578
       11359.537
       11340.345
       11303.435
       11258.817
       11286.928
       11301.809
       11278.841
       11233.191
       11209.937
       11176.414
       11187.569
       11242.251
       11222.621
       11167.916
       11202.077
       11307.895
       11341.561
       11294.910
       11226.651
       11146.068
       11095.081
       11152.361
       11149.811
       11176.365
       11211.975
       11200.570
       11212.042
       11251.473
       11233.891
       11164.519
       11035.378
       11024.930
       11221.588
       11315.145
       11353.118
       11369.300
       11337.119
       11331.880
       11297.439
       11194.002
       11224.236
       11334.571
       11381.862
       11365.189
       11334.168
       11271.394
       11107.638
       11179.007
       11380.182
       11461.858
       11541.408
       11573.777
       11568.023
       11560.084
       11479.400
       11405.606
       11362.490
       11204.227
       11102.343
       11299.374
       11490.503
       11502.901
       11615.534
       11782.048
       11863.020
       11936.068
       12019.562
       12071.732
       12046.350
       12010.149
       11975.442
       11939.944
       12056.733
       12237.755
       12329.086
       12325.000
       12372.933
       12450.386
       12461.669
       12437.137
       12404.373
       12321.492
       12241.761
       12267.088
       12348.620
       12442.552
       12484.328
       12481.197
       12429.788
       12331.542
       12355.442
       12495.326
       12510.293
       12466.913
       12461.074
       12441.718
       12373.532
       12409.955
       12511.309
       12466.095
       12363.552
       12410.017
       12560.926
       12672.017
       12801.135
       12841.483
       12872.620
       12921.301
       12894.362
       12953.992
       13011.898
       12970.285
       12930.181
       12974.795
       13028.261
       13044.117
       13077.066
       13027.900
       13018.716
       12993.464
       12917.659
       12809.346
       12764.027
       12882.654
       13008.945
       13020.412
       12932.040
       12810.798
       12718.414
       12675.325
       12730.053
       12902.974
       13011.930
       13089.938
       13086.203
       13027.462
       12992.149
       12929.198
       12815.181
       12810.174
       12941.040
       12993.463
       12995.404
       13044.248
       13082.996
       13075.036
       12991.210
       12918.835
       12873.253
       12802.326
       12804.870
       12913.383
       13031.882
       13113.353
       13124.676
       13147.594
       13180.863
       13157.871
       13136.788
       13118.610
       13125.309
       13122.848
       13089.353
       13032.127
       12908.093
       12838.170
       12864.874
       12790.619
       12771.087
       12887.526
       12929.790
       12817.039
       12764.318
       12782.973
       12840.703
       12876.965
       12860.237
       12802.680
       12917.596
       13046.944
       13052.130
       12975.136
       12876.784
       12887.727
       12919.846
       12881.854
       12825.662
       12948.295
       13014.627
       12970.425
       12851.803
       12800.703
       12883.816
       12878.270
       12897.671
       12901.431
       12828.522
       12802.621
       12989.217
       13057.209
       12978.185
       12965.918
       13008.264
       13041.292
       13048.088
       13025.515
       12968.730
       12983.242
       12953.618
       12858.706
       12665.448
       12398.660
       12327.822
       12610.198
       12860.337
       13039.315
       13135.226
       13173.653
       13157.352
       13156.212
       13142.295
       13072.235
       13010.534
       12998.813
       13084.530
       13102.743
       13074.820
       13051.699
       13107.542
       13113.841
       13116.152
       13131.923
       13144.967
       13098.756
       13028.781
       12902.670
       12769.908
       12719.352
       12546.022
       12244.659
       11854.690
       11434.728
       10870.387
       10366.358
       10880.568
       11875.629
       12426.015
       12711.296
       12876.009
       12990.149
       13120.533
       13181.299
       13214.329
       13190.786
       13164.937
       13173.091
       13155.025
       13030.416
       13059.186
       13216.920
       13309.324
       13373.218
       13391.973
       13343.350
       13352.788
       13354.592
       13443.156
       13483.146
       13506.087
       13528.384
       13506.865
       13490.431
       13470.680
       13438.533
       13380.363
       13345.796
       13275.495
       13307.227
       13439.613
       13487.427
       13495.902
       13463.916
       13544.190
       13604.149
       13636.772
       13614.659
       13585.178
       13551.324
       13560.081
       13515.460
       13420.420
       13475.129
       13546.100
       13598.044
       13596.735
       13589.928
       13536.680
       13473.029
       13581.456
       13691.907
       13718.842
       13714.472
       13667.885
       13642.274
       13583.858
       13526.232
       13478.561
       13538.647
       13552.365
       13494.391
       13487.657
       13523.618
       13509.494
       13433.572
       13363.116
       13292.125
       13272.261
       13402.698
       13468.885
       13526.870
       13530.205
       13558.877
       13551.711
       13520.696
       13489.430
       13473.381
       13450.901
       13404.344
       13391.026
       13372.048
       13318.204
       13273.388
       13350.552
       13372.009
       13402.287
       13410.397
       13381.227
       13401.582
       13330.817
       13296.206
       13264.378
       13317.739
       13324.299
       13340.831
       13351.045
       13336.918
       13273.385
       13267.735
       13252.046
       13282.706
       13272.997
       13233.353
       13175.796
       13180.913
       13182.031
       13162.784
       13139.004
       13101.192
       13136.617
       13092.274
       13098.497
       13091.769
       13122.880
       13112.100
       13063.272
       13047.386
       13034.891
       13000.333
       12954.399
       12962.620
       12916.200
       12809.990
       12711.845
       12591.642
       12593.936
       12721.176
       12837.848
       12830.881
       12775.108
       12701.382
       12606.926
       12596.710
       12656.496
       12677.354
       12705.435
       12778.925
       12793.474
       12816.621
       12764.737
       12758.959
       12733.439
       12678.427
       12628.315
       12610.051
       12660.908
       12701.651
       12746.691
       12767.336
       12712.709
       12711.112
       12703.444
       12685.027
       12656.531
       12648.628
       12634.972
       12591.415
       12557.949
       12528.409
       12443.643
       12433.817
       12517.988
       12559.452
       12525.676
       12487.825
       12539.683
       12612.567
       12591.385
       12565.725
       12593.410
       12611.563
       12594.919
       12550.926
       12470.873
       12439.103
       12472.609
       12510.103
       12479.032
       12522.957
       12558.324
       12565.774
       12581.725
       12583.208
       12574.209
       12554.581
       12527.270
       12474.311
       12381.342
       12268.264
       12211.573
       12366.943
       12566.271
       12608.972
       12610.131
       12572.051
       12593.705
       12588.787
       12545.335
       12491.594
       12416.794
       12385.107
       12368.627
       12334.667
       12388.698
       12431.483
       12387.858
       12330.935
       12290.445
       12342.569
       12432.939
       12402.519
       12397.020
       12485.510
       12527.271
       12508.989
       12509.025
       12469.205
       12517.688
       12568.566
       12672.690
       12706.712
       12691.325
       12707.127
       12692.766
       12646.741
       12620.996
       12616.127
       12608.609
       12598.429
       12597.591
       12602.340
       12570.627
       12561.248
       12632.100
       12677.181
       12731.243
       12662.534
       12621.118
       12557.212
       12466.071
       12437.123
       12517.066
       12555.244
       12557.144
       12594.731
       12631.925
       12691.181
       12700.234
       12679.680
       12678.187
       12599.948
       12517.404
       12476.676
       12482.857
       12498.280
       12498.701
       12438.426
       12391.679
       12430.979
       12469.335
       12421.463
       12350.722
       12378.068
       12480.074
       12512.569
       12463.400
       12400.653
       12300.849
       12230.207
       12153.355
       12142.801
       12268.966
       12342.878
       12316.548
       12281.064
       12221.116
       12125.526
       11932.029
       11936.253
       12104.931
       12196.948
       12125.905
       12007.944
       11888.203
       11850.994
       11692.924
       11609.695
       11544.569
       11420.332
       11413.941
       11440.569
       11425.094
       11425.665
       11445.439
       11440.990
       11310.171
       11286.447
       11196.169
       11080.694
       11197.134
       11260.349
       11216.368
       11123.406
       11062.339
       10986.401
       10941.145
       10985.306
       11026.380
       11069.284
       11054.684
       11036.891
       10954.910
       10925.896
       10861.510
       10870.839
       10880.821
       10876.852
       10856.335
       10810.199
       10758.423
       10790.334
       10784.339
       10769.606
       10708.479
       10706.079
       10752.966
       10809.340
       10768.337
       10731.215
       10683.060
       10660.446
       10644.861
       10603.472
       10498.044
       10420.544
       10431.377
       10348.241
       10281.623
       10342.796
       10488.397
       10585.497
       10610.072
       10562.025
       10512.248
       10470.764
       10375.111
       10334.364
       10323.679
       10377.595
       10425.059
       10379.610
       10324.016
       10273.221
       10181.936
       10079.667
       10053.779
       10058.803
       9976.6344
       9912.1957
       10116.918
       10291.890
       10272.991
       10184.976
       10046.422
       9940.4681
       10065.969
       10146.175
       10153.486
       10139.057
       10158.225
       10161.905
       10110.085
       10073.173
       10094.264
       10127.270
       10123.977
       10113.302
       10072.258
       10026.613
       10062.690
       10061.928
       9932.9467
       9789.0313
       9618.4211
       9556.6252
       9695.5416
       9796.5473
       9783.3484
       9833.0436
       9793.2297
       9713.6454
       9740.7221
       9671.9403
       9591.9568
       9465.8471
       9416.2605
       9472.6089
       9454.4861
       9488.3008
       9502.4297
       9430.9946
       9467.2952
       9668.7425
       9787.7162
       9809.1623
       9849.1140
       9933.5070
       9926.0588
       9883.7143
       9799.9436
       9696.6569
       9626.6670
       9590.2998
       9697.8809
       9796.2050
       9793.2740
       9795.0567
       9753.6404
       9655.1368
       9508.9811
       9526.0189
       9675.3493
       9727.7726
       9715.4205
       9649.2349
       9628.6529
       9621.9848
       9624.8572
       9662.7373
       9658.2111
       9684.6634
       9729.7755
       9716.4639
       9621.2531
       9444.6269
       9338.4230
       9470.8786
       9603.6362
       9675.7959
       9607.2201
       9542.1559
       9499.7439
       9370.4573
       9289.4223
       9415.2583
       9540.1866
       9602.0405
       9573.7762
       9462.6120
       9396.1674
       9462.2009
       9553.1536
       9506.6002
       9504.7727
       9588.8627
       9659.2410
       9687.9641
       9670.2656
       9652.9790
       9652.0514
       9582.8593
       9611.6268
       9679.3922
       9642.9834
       9522.5466
       9520.1685
       9586.2112
       9645.6189
       9689.8644
       9638.1304
       9557.4840
       9478.0495
       9558.6587
       9502.4837
       9543.0006
       9608.7324
       9627.2729
       9530.7279
       9352.7725
       9254.0491
       9405.9231
       9602.7120
       9686.1019
       9679.5660
       9635.7107
       9640.1800
       9581.9042
       9546.7981
       9572.5045
       9593.2670
       9636.2278
       9633.0765
       9667.0543
       9566.9694
       9346.2808
       9299.4487
       9425.9617
       9569.3042
       9603.2134
       9619.3280
       9617.3372
       9608.5849
       9617.7666
       9626.9438
       9618.4377
       9602.9593
       9626.6047
       9680.4221
       9725.3378
       9695.2137
       9650.7562
       9599.3125
       9528.2699
       9360.3747
       9144.9331
       9138.2863
       9155.0774
       8947.7731
       9175.1084
       9444.8340
       9515.0268
       9592.6276
       9619.7793
       9625.9916
       9535.0564
       9468.6671
       9567.5535
       9650.2851
       9597.0620
       9439.4524
       9328.9019
       9392.8624
       9516.0160
       9361.2183
       9262.0595
       9489.9659
       9583.3996
       9587.9932
       9565.4010
       9401.8412
       9290.6223
       9162.9653
       9208.6142
       9368.1140
       9389.7267
       9314.7501
       9326.5142
       9325.0883
       9278.0265
       9393.3183
       9379.3964
       9397.4323
       9426.1873
       9438.2830
       9355.7796
       9174.4575
       9218.0503
       9117.3810
       8977.3962
       9132.7535
       9292.4267
       9333.3916
       9339.2503
       9265.4892
       9248.0922
       9271.1173
       9245.8865
       9265.1433
       9219.6741
       9075.3438
       8975.8159
       9004.5402
       9106.1274
       8977.9533
       8971.5384
       9154.1031
       9186.3449
       9077.0595
       9049.2749
       9128.4935
       9147.5318
       9057.8139
       8874.4990
       8854.8400
       8972.2898
       9013.1954
       8959.2327
       8845.3853
       8818.7924
       8824.3287
       8916.0152
       8934.5985
       8919.3192
       8892.1781
       8887.0150
       8883.9996
       8858.2449
       8836.9954
       8622.2005
       8496.2318
       8526.8594
       8622.0537
       8698.7686
       8692.1283
       8650.2755
       8654.6546
       8608.0599
       8488.2112
       8482.8572
       8487.3159
       8434.9177
       8458.2316
       8430.6267
       8389.8383
       8372.2971
       8355.5582
       8309.4443
       8266.9100
       8225.6814
       8192.0083
       8137.4457
       8082.3139
       8029.9580
       7969.5371
       7992.8957
       7989.5901
       7938.7051
       7902.6972
       7861.6267
       7784.3790
       7758.4530
       7776.4232
       7757.6595
       7752.0838
       7763.8038
       7769.7175
       7718.2626
       7696.9536
       7633.2753
       7638.1137
       7562.8519
       7533.1377
       7614.3029
       7610.5689
       7590.9066
       7575.4639
       7508.6134
       7370.5218
       7353.3717
       7376.7681
       7294.8553
       7330.5920
       7330.4642
       7217.2982
       7100.6830
       7168.0028
       7263.7611
       7282.2228
       7264.6294
       7233.5882
       7195.4499
       7212.8485
       7178.2254
       7157.2049
       7164.2083
       7151.6275
       7116.0319
       7084.5618
       7088.4968
       7101.0639
       7076.6978
       7057.0907
       7075.8915
       7059.2206
       7004.7886
       7000.6072
       7008.3901
       6959.7452
       6862.5201
       6803.5680
       6709.7460
       6707.0573
       6797.2142
       6839.9262
       6823.5006
       6815.2802
       6799.9394
       6800.4636
       6802.3167
       6827.2113
       6811.1219
       6802.6889
       6795.6817
       6726.2601
       6614.9751
       6617.8381
       6694.0071
       6756.8893
       6684.0817
       6675.1094
       6657.7564
       6690.4946
       6587.0146
       6436.7699
       6353.9076
       6430.4509
       6473.4633
       6468.9952
       6477.3967
       6499.4894
       6503.6535
       6510.8055
       6507.4087
       6476.1759
       6474.3759
       6420.0779
       6365.2087
       6375.9355
       6407.3914
       6403.9530
       6404.0500
       6374.6242
       6291.4644
       6285.9130
       6320.2353
       6300.7682
       6251.2745
       6185.6753
       6185.9294
       6126.9367
       6139.4402
       6193.4309
       6185.5516
       6163.6965
       6161.2742
       6154.3224
       6145.9051
       6152.5858
       6153.9224
       6157.6069
       6158.9756
       6167.1063
       6150.3365
       6160.0318
       6159.5355
       6144.6705
       6133.5592
       6163.0810
       6131.7235
       6158.6953
       6114.1282
       6121.0505
       6113.1465
       6108.9974
       6080.3257
       6071.1999
       6066.8690
       6044.0165
       6037.2020
       6031.0652
       6019.7846
       6011.1495
       6006.5248
       5980.7394
       5963.2955
       5959.9754
       5951.2388
       5971.0301
       5970.4404
       5945.4211
       5826.6975
       5779.2132
       5789.0637
       5852.0286
       5927.5066
       5894.1545
       5759.2775
       5704.9457
       5759.1886
       5822.6894
       5879.2543
       5922.5873
       5942.0742
       5904.8280
       5883.4407
       5824.5859
       5783.7167
       5819.5218
       5843.7037
       5746.0038
       5764.9652
       5859.3325
       5896.4119
       5903.8428
       5851.3944
       5822.0667
       5833.6759
       5865.4376
       5821.1961
       5709.7632
       5791.5809
       5841.6513
       5794.6551
       5749.3687
       5780.2237
       5825.5168
       5872.8475
       5846.2294
       5867.2027
       5903.3474
       5939.3533
       5934.1115
       5924.5867
       5925.3197
       5949.6852
       5931.8141
       5918.8391
       5917.1778
       5929.0333
       5933.1715
       5932.7697
       5937.0988
       5899.1351
       5873.3028
       5867.6250
       5814.3199
       5806.8630
       5822.0526
       5820.1754
       5843.6698
       5830.0953
       5797.3829
       5787.8850
       5757.6624
       5724.7263
       5769.2983
       5785.2737
       5785.9197
       5795.9983
       5766.1787
       5756.5479
       5705.0562
       5605.3778
       5631.5645
       5561.9205
       5571.5398
       5570.3766
       5561.4790
       5600.7163
       5595.8363
       5613.9024
       5558.9691
       5545.4090
       5598.6208
       5637.3487
       5673.9130
       5657.7917
       5639.2940
       5596.5982
       5559.8808
       5535.5201
       5509.3124
       5529.2939
       5562.3585
       5544.6674
       5533.1932
       5524.1609
       5495.4882
       5504.3110
       5470.3767
       5414.9900
       5351.3801
       5268.4971
       5265.4576
       5284.6530
       5322.7186
       5307.5312
       5300.4828
       5243.7064
       5232.8514
       5197.3294
       5202.0188
       5153.6447
       5135.0235
       5085.9823
       5036.5853
       5005.1797
       4977.3076
       4959.8811
       4931.6039
       4867.5042
       4798.2670
       4797.9180
       4792.4443
       4755.8765
       4679.1454
       4594.9623
       4540.9154
       4487.2055
       4462.3010
       4416.0464
       4327.5984
       4300.4927
       4241.4573
       4202.5661
       4143.7209
       4073.1977
       3984.3832
       3915.9134
       3825.4174
       3730.4111
       3626.5093
       3486.0864
       3390.0589
       3295.8559
       3200.2109
       3113.3632
       3023.0347
       2884.8588
       2777.7287
       2667.9239
       2549.9036
       2429.8588
       2313.2055
       2208.5816
       2067.1850
       1911.9624
       1696.9020
       1560.2201
       1483.3894
       1409.3784
       1375.9555
       1299.1192
       1228.0882
       1147.2738
       1076.8108
       979.41864
       923.22447
       861.66925
       831.04854
       781.06824
       754.85050
       711.42055
       677.06348
       656.74449
       649.49370
       624.33741
       619.47271
       589.86814
       580.55749
       584.34173
       617.03312
       643.96974
       657.63651
       656.02952
       661.59580
       658.21947
       663.82043
       664.44099
       670.42697
       671.46892
       676.91067
       659.48320
       652.64905
       637.73717
       637.32427
       623.96419
       602.79324
       592.34312
       587.10188
       558.68393
       562.10777
       545.05794
       520.59655
       515.52878
       508.15751
       489.46708
       486.61353
       471.90926
       473.40376
       471.50823
       465.59078
       468.84282
       468.72992
       461.65397
       454.94888
       455.60677
       456.01208
       457.46039
       461.26176
       462.50141
       460.20643
       485.34218
       461.97814
       451.02827
       461.61015
       466.72986
       458.94773
       460.15682
       457.43541
       460.76188
       457.90922
       465.37219
       461.16372
       471.75349
       464.05114
       473.46357
       479.40714
       467.91971
       482.60074
       485.07706
       491.66633
       510.26081
       503.48675
       514.98219
       526.88925
       528.05754
       548.53900
       542.82916
       547.34525
       545.97269
       564.44594
       564.46762
       567.64134
       568.95579
       575.59152
       579.63845
       616.97962
       591.12383
       590.30815
       603.99745
       602.54404
       598.18870
       586.45528
       597.47272
       601.92959
       603.74036
       602.64137
       613.68218
       616.94881
       615.05973
       624.77253
       618.84307
       625.17408
       629.62415
       639.23276
       657.92930
       665.69791
       670.93683
       700.39725
       699.37773
       718.07921
       740.86928
       760.45751
       781.01367
       800.00628
       823.23783
       861.13394
       884.17739
       901.94924
       936.32625
       974.44966
       996.94227
       1029.8314
       1053.7597
       1084.2703
       1127.7224
       1154.7593
       1216.1133
       1223.8151
       1258.5376
       1302.1927
       1338.1273
       1361.1671
       1371.3581
       1409.5459
       1434.6868
       1459.8340
       1505.1676
       1523.8231
       1540.1449
       1540.1532
       1524.4838
       1559.8269
       1611.7887
       1647.7546
       1670.5237
       1692.2968
       1721.5533
       1739.9099
       1768.9456
       1777.2713
       1789.7018
       1813.3815
       1809.6562
       1838.7359
       1862.1525
       1875.7390
       1877.2947
       1886.9714
       1902.4608
       1913.9601
       1916.8125
       1925.2898
       1946.9337
       1952.2313
       1959.2779
       1962.0287
       1965.2463
       1961.9980
       1934.6155
       1926.0142
       1911.6493
       1903.4640
       1919.0346
       1918.2389
       1915.0873
       1913.6522
       1895.0581
       1915.9745
       1912.6028
       1900.3648
       1896.5833
       1903.1578
       1886.0150
       1871.1016
       1867.6355
       1857.0527
       1851.8845
       1848.1629
       1828.0175
       1806.3826
       1794.7323
       1761.1024
       1757.6086
       1715.5415
       1693.7930
       1679.7695
       1658.7349
       1619.1036
       1597.9391
       1573.1998
       1530.4860
       1495.0215
       1467.1980
       1443.7831
       1413.2785
       1383.9191
       1374.9092
       1342.0749
       1298.1223
       1281.5227
       1243.3260
       1223.3861
       1182.8891
       1145.9138
       1144.2183
       1107.1898
       1077.5625
       1052.6931
       1032.1548
       992.93757
       965.98003
       931.29690
       903.35496
       875.62950
       846.83617
       822.13883
       796.69013
       770.20757
       742.07523
       721.24300
       696.56270
       685.01737
       659.47059
       643.42408
       629.67856
       621.02926
       597.60163
       571.58611
       563.02015
       553.82866
       542.19860
       522.87407
       518.14215
       519.92811
       505.57614
       494.39577
       490.01374
       484.13279
       492.41052
       469.96098
       471.20471
       473.06427
       469.57895
       468.34054
       468.53600
       468.49706
       462.33949
       464.76174
       455.56403
       468.72895
       457.47306
       460.07476
       472.44262
       464.95107
       453.78141
       460.67990
       452.48737
       452.79999
       452.79999
       452.79999
      339.800
      342.000
      340.400
      338.400
      338.800
      340.000
      339.600
      339.400
      338.400
      339.000
      338.600
      338.400
      340.000
      338.800
      339.400
      338.000
      338.000
      340.400
      340.200
      338.600
      339.400
      338.400
      338.200
      340.400
      340.000
      339.400
      338.600
      337.400
      337.800
      337.800
      339.200
      339.000
      337.800
      337.800
      338.400
      337.800
      338.000
      338.400
      338.800
      338.800
      338.400
      337.200
      338.200
      338.800
      339.000
      336.000
      337.200
      337.400
      339.400
      342.200
      360.400
      364.600
      365.400
      367.600
      366.400
      365.000
      363.800
      365.200
      367.400
      366.600
      365.600
      365.200
      366.600
      363.600
      364.800
      366.200
      366.400
      365.200
      365.400
      364.400
      365.400
      366.200
      365.800
      365.600
      364.400
      366.000
      364.400
      365.400
      365.600
      364.000
      363.600
      364.200
      364.000
      364.800
      365.400
      364.000
      364.600
      365.800
      364.800
      365.600
      364.400
      364.800
      365.200
      363.800
      363.600
      364.600
      364.000
      364.600
      364.400
      366.000
       423.19777
       429.64687
       437.69231
       436.12045
       446.68305
       440.90992
       448.61972
       442.80498
       441.32514
       452.95614
       427.87695
       439.14555
       432.24416
       428.84248
       432.51697
       435.32049
       441.80737
       440.34448
       433.37107
       435.47671
       448.54120
       460.14998
       447.83780
       447.06710
       451.95114
       443.79581
       432.70548
       431.76116
       437.92986
       442.92012
       443.67295
       452.11667
       467.63946
       447.16762
       453.88733
       454.45077
       460.14205
       443.27246
       450.50522
       454.07273
       449.02996
       450.92885
       460.66142
       467.01699
       459.11568
       471.10978
       493.67827
       498.19497
       495.91756
       502.18329
       510.53784
       515.67040
       511.42684
       521.85537
       506.95451
       505.35908
       529.42359
       538.59203
       530.12262
       521.76812
       515.59112
       522.15734
       501.16386
       512.01932
       502.19993
       523.01028
       535.65437
       550.81109
       536.59828
       522.65417
       522.72138
       514.53905
       512.77743
       518.41798
       517.57317
       512.19595
       508.21776
       512.64934
       518.50417
       518.00575
       503.91335
       489.55730
       494.39014
       487.31968
       498.61571
       503.30580
       519.17380
       540.28009
       553.14282
       567.40843
       569.66870
       564.29719
       564.61005
       563.42976
       559.40986
       549.16531
       551.74129
       557.87857
       566.21623
       559.43136
       562.73644
       545.65647
       545.79762
       544.68217
       536.17526
       529.73803
       527.29406
       516.58727
       517.53954
       521.88335
       520.93560
       543.24630
       549.48995
       577.21483
       584.61610
       602.49080
       590.70181
       595.82432
       581.77415
       576.29275
       563.84452
       547.39637
       539.89270
       543.93710
       569.35414
       571.38715
       575.11103
       575.40577
       563.23131
       565.27492
       542.22324
       541.87494
       560.78163
       574.56209
       595.88291
       591.68226
       584.60367
       562.95900
       552.14232
       540.10187
       543.51533
       556.01252
       569.00615
       569.49042
       553.36534
       563.96008
       570.28328
       587.87790
       623.42953
       627.55027
       629.82868
       635.16872
       628.37807
       630.00700
       619.86334
       625.08239
       635.62572
       618.66116
       617.72615
       621.89035
       639.21795
       660.91894
       665.41672
       664.20190
       646.23293
       646.30685
       636.15158
       628.06308
       629.25979
       651.40685
       677.06060
       668.38721
       645.32478
       632.64485
       618.07453
       621.13547
       634.80087
       627.15707
       627.59806
       622.56283
       605.42644
       612.75439
       634.79990
       659.89468
       680.21037
       690.63063
       691.21950
       699.27136
       694.45810
       688.21973
       686.86842
       696.19449
       708.31080
       713.95092
       717.61507
       710.79845
       709.34687
       696.95706
       707.29670
       707.31441
       706.58356
       722.55654
       756.47652
       688.53896
       699.01882
       705.10197
       700.08162
       683.47167
       669.25619
       670.31693
       669.42086
       642.39447
       629.63823
       636.81776
       655.35893
       661.10518
       671.62197
       663.10900
       684.77436
       681.74789
       685.54482
       665.87742
       644.90737
       636.24500
       636.68956
       622.85732
       618.24570
       591.76299
       563.78197
       575.21878
       564.10287
       555.58785
       537.91867
       519.35493
       516.86257
       516.74049
       516.98608
       500.19654
       490.10899
       487.83529
       492.40679
       497.25682
       505.47436
       522.30300
       529.22087
       543.19147
       559.75062
       578.88381
       585.30581
       605.37801
       621.48634
       642.25913
       654.40315
       667.04364
       664.41438
       672.19638
       671.62824
       672.13340
       682.88222
       679.77827
       666.67775
       656.19448
       666.14902
       694.97183
       732.66511
       758.97921
       776.65719
       776.38939
       765.28055
       749.62842
       750.19757
       753.83954
       769.17072
       793.47079
       812.89518
       818.97529
       822.54053
       820.24173
       809.42335
       789.06548
       768.50971
       775.33919
       812.07607
       838.10746
       850.14342
       828.86804
       815.91748
       806.01515
       782.89958
       792.31193
       822.59069
       828.35972
       838.43877
       843.04726
       839.53661
       837.39294
       811.61291
       765.41951
       717.31713
       687.94460
       674.25618
       690.03524
       699.55753
       692.91156
       692.28706
       679.45022
       664.73809
       647.69723
       612.10044
       599.31742
       579.12206
       551.89927
       543.96848
       539.95763
       531.44293
       539.84020
       563.78143
       585.71831
       618.78961
       625.78821
       646.52354
       665.44446
       693.63284
       717.61282
       717.22946
       729.96032
       748.12142
       779.48452
       811.02333
       837.47152
       851.76332
       853.94545
       865.04673
       886.97228
       906.48402
       927.30249
       941.25058
       961.33322
       975.10537
       996.66769
       1002.2154
       997.40922
       975.15633
       961.88593
       964.31548
       965.46946
       967.40212
       973.37428
       971.50910
       1002.2624
       1012.5029
       995.76452
       987.79792
       982.41210
       1001.2673
       1037.8462
       1076.4153
       1087.6148
       1081.1198
       1070.0562
       1040.5272
       1049.5761
       1072.1999
       1091.5775
       1096.5691
       1095.8343
       1114.1712
       1119.5097
       1122.4957
       1081.9406
       1071.5995
       1082.6211
       1072.8570
       1084.6946
       1075.0430
       1062.5808
       1039.6835
       1032.1654
       1055.4833
       1096.9420
       1143.2421
       1176.4358
       1177.8883
       1160.5878
       1142.7434
       1133.4251
       1154.2189
       1179.2564
       1202.7598
       1197.4763
       1179.2712
       1137.1773
       1068.0155
       1008.9364
       985.42133
       1022.2352
       1070.8269
       1102.5808
       1132.4408
       1174.5246
       1188.5185
       1183.2696
       1177.1773
       1171.0397
       1174.3225
       1184.7626
       1192.1587
       1201.0180
       1208.8618
       1205.3662
       1218.0050
       1211.0549
       1188.5058
       1187.5672
       1214.9879
       1235.3243
       1240.7568
       1217.2932
       1202.9477
       1167.8264
       1135.4344
       1163.0407
       1206.7617
       1236.6227
       1260.0286
       1250.2028
       1220.1110
       1206.9025
       1222.3771
       1225.9796
       1220.6633
       1232.9159
       1245.0427
       1245.9310
       1218.0114
       1186.7216
       1181.8293
       1203.3851
       1226.2811
       1259.2292
       1266.7071
       1282.0987
       1279.7062
       1283.2113
       1283.2134
       1275.7290
       1233.2550
       1185.7866
       1116.7358
       1079.0316
       1100.9639
       1135.3039
       1130.9727
       1114.1946
       1098.4490
       1109.8425
       1152.4517
       1142.6311
       1151.7941
       1183.4259
       1206.5314
       1244.5798
       1287.8001
       1320.5132
       1320.5803
       1331.6969
       1311.9070
       1289.0631
       1266.9136
       1254.5130
       1238.6103
       1224.3259
       1230.0363
       1268.7787
       1293.5265
       1313.2554
       1299.6362
       1225.8765
       1157.7365
       1079.4571
       1007.0307
       951.25335
       920.91265
       982.44015
       1104.6162
       1200.9946
       1250.7127
       1270.1302
       1276.1967
       1258.8024
       1253.5360
       1287.4561
       1319.4844
       1323.5027
       1294.1094
       1262.3576
       1234.8208
       1215.2486
       1230.5417
       1241.6505
       1226.2432
       1203.8721
       1189.5972
       1198.4698
       1219.9929
       1221.0679
       1210.9845
       1180.1359
       1129.5863
       1134.9538
       1168.5832
       1191.3051
       1229.4265
       1271.9915
       1307.0196
       1295.9379
       1273.8933
       1245.1468
       1183.1432
       1116.3425
       1056.3140
       1002.1205
       1017.7191
       1118.0130
       1227.9585
       1251.9774
       1237.0013
       1198.4182
       1167.5059
       1167.7535
       1205.8597
       1255.1345
       1309.4043
       1330.0873
       1329.0256
       1323.1662
       1268.8755
       1185.4448
       1122.9867
       1085.9829
       1103.2529
       1196.3047
       1292.7772
       1331.2249
       1321.4317
       1297.8672
       1271.0621
       1264.2047
       1239.6859
       1194.8737
       1145.9211
       1130.9763
       1138.0924
       1143.5336
       1191.8976
       1237.7779
       1251.5066
       1284.0285
       1326.8634
       1367.5425
       1387.4976
       1389.7021
       1376.8886
       1352.0103
       1316.5949
       1281.0419
       1259.1844
       1247.6801
       1256.0287
       1268.0152
       1298.8587
       1329.6000
       1353.5109
       1391.6350
       1429.6936
       1446.3147
       1443.4658
       1438.4945
       1427.1833
       1420.3916
       1395.7799
       1398.5386
       1395.3644
       1387.8980
       1367.8749
       1338.8515
       1344.4112
       1391.3579
       1440.8152
       1418.7045
       1368.8490
       1318.8418
       1294.3383
       1292.8221
       1289.1487
       1277.8034
       1296.3094
       1296.6113
       1284.7227
       1271.2623
       1284.4225
       1271.2076
       1220.8990
       1154.0576
       1086.3167
       1043.5135
       1032.3945
       1075.9954
       1158.4975
       1212.0906
       1247.5778
       1271.0411
       1295.9178
       1332.8478
       1368.6461
       1391.4722
       1395.2857
       1389.1644
       1400.0624
       1397.0001
       1395.2498
       1411.0539
       1403.4208
       1388.1768
       1395.3900
       1388.9532
       1391.1552
       1408.5943
       1419.4995
       1420.4853
       1434.9743
       1461.3745
       1489.9771
       1507.4133
       1507.3493
       1488.9421
       1487.8975
       1523.8487
       1538.2570
       1543.8069
       1542.9166
       1527.0235
       1483.8323
       1420.0939
       1373.7660
       1400.6368
       1454.1526
       1488.5171
       1518.3568
       1510.6016
       1490.0393
       1464.4607
       1468.5040
       1471.9071
       1465.5383
       1486.3996
       1521.4298
       1555.5498
       1550.4650
       1513.5311
       1477.5052
       1467.4284
       1483.6957
       1474.7017
       1438.8233
       1445.6332
       1472.6969
       1494.1591
       1491.6150
       1495.7041
       1510.6486
       1506.8424
       1455.9989
       1375.9116
       1315.5771
       1322.2160
       1387.7628
       1435.9241
       1420.2483
       1402.9363
       1430.3432
       1519.5316
       1602.4630
       1616.5091
       1591.6121
       1561.4714
       1555.6541
       1580.0180
       1608.6495
       1633.2807
       1637.0101
       1636.2443
       1613.3294
       1620.9065
       1640.3792
       1599.3121
       1530.3471
       1447.0593
       1382.7772
       1333.7064
       1297.0666
       1329.0153
       1444.3932
       1545.2975
       1573.1981
       1573.0652
       1582.5725
       1592.1095
       1575.8983
       1576.8347
       1587.9815
       1594.1646
       1553.3464
       1505.2811
       1505.4670
       1544.9450
       1583.1176
       1589.8227
       1575.2559
       1556.5367
       1552.6507
       1558.0531
       1533.5779
       1465.5947
       1419.8164
       1451.1866
       1523.2693
       1554.4754
       1522.6229
       1470.7203
       1461.6990
       1515.6471
       1554.4435
       1557.8986
       1565.7842
       1591.0110
       1614.5084
       1634.8920
       1614.1268
       1598.3943
       1587.3319
       1622.1682
       1678.0651
       1707.9831
       1685.5841
       1665.1518
       1651.6606
       1644.7244
       1645.0262
       1644.3272
       1651.4298
       1647.8367
       1600.5547
       1526.4914
       1480.0436
       1520.8178
       1600.4646
       1630.5073
       1638.3783
       1635.0338
       1618.6185
       1601.4312
       1569.3875
       1496.7771
       1438.7838
       1397.9826
       1390.7693
       1421.0268
       1457.7848
       1490.0692
       1507.4842
       1515.7691
       1517.5189
       1533.5914
       1546.1671
       1531.7127
       1506.3971
       1479.5881
       1477.5168
       1524.5120
       1548.8161
       1570.3746
       1590.3922
       1607.5802
       1591.2894
       1537.4530
       1490.9148
       1464.4215
       1486.4160
       1509.4673
       1521.7496
       1536.5597
       1551.1591
       1549.7702
       1595.6764
       1617.7381
       1585.6933
       1503.8449
       1428.8703
       1374.7489
       1367.6789
       1419.9615
       1480.0907
       1529.3857
       1571.8058
       1611.3360
       1607.7755
       1572.0139
       1528.6597
       1499.9504
       1534.6787
       1617.2719
       1665.2929
       1682.7357
       1666.0443
       1620.4820
       1553.4192
       1483.4225
       1453.5036
       1460.4160
       1491.8356
       1489.7155
       1474.7290
       1430.1909
       1360.3974
       1333.0290
       1366.0806
       1441.6705
       1487.1981
       1470.9831
       1439.5712
       1417.1688
       1388.3783
       1376.3657
       1412.5724
       1479.8009
       1522.7446
       1532.6968
       1533.9164
       1549.6873
       1553.7691
       1572.2428
       1594.0268
       1584.4614
       1570.2343
       1591.3081
       1621.0232
       1628.1156
       1605.6208
       1585.7989
       1557.2928
       1529.6981
       1525.0692
       1547.6631
       1582.4646
       1610.6516
       1623.2743
       1622.0077
       1623.9776
       1618.0133
       1598.1792
       1577.5218
       1534.7877
       1461.0527
       1396.7263
       1381.2734
       1435.7044
       1489.8709
       1502.2068
       1518.2604
       1535.8646
       1544.3944
       1544.9371
       1549.9680
       1563.3957
       1587.4658
       1616.3436
       1614.1431
       1577.9801
       1550.1655
       1522.3144
       1495.0961
       1470.6907
       1430.4497
       1403.0878
       1374.2854
       1318.1663
       1245.6812
       1156.3346
       1076.4673
       1034.7984
       1088.6983
       1220.0745
       1371.0974
       1476.9684
       1515.8385
       1512.9200
       1518.8166
       1542.7291
       1562.1862
       1573.2209
       1575.1901
       1556.5109
       1501.3074
       1446.8809
       1417.0903
       1441.2749
       1494.7706
       1506.1595
       1464.6835
       1387.0379
       1324.2274
       1322.7420
       1363.7384
       1398.5942
       1422.1075
       1437.6457
       1428.0608
       1422.1170
       1414.3459
       1411.9615
       1434.2154
       1474.2839
       1532.2121
       1560.1603
       1542.2493
       1475.2338
       1429.6902
       1443.1388
       1483.5693
       1544.2289
       1587.7741
       1589.9815
       1565.9566
       1548.1625
       1529.5026
       1492.7707
       1446.5907
       1408.2496
       1397.2882
       1400.9147
       1397.3748
       1374.4107
       1341.1828
       1299.9823
       1289.4679
       1348.8035
       1456.0088
       1539.1976
       1570.8310
       1563.1035
       1527.9344
       1474.4122
       1413.7313
       1372.8938
       1372.5381
       1393.6572
       1425.3346
       1476.8780
       1547.8766
       1604.0498
       1600.9012
       1548.5680
       1478.5825
       1425.5537
       1395.7721
       1348.9684
       1285.7571
       1232.6291
       1246.2635
       1320.8136
       1381.2281
       1454.7921
       1527.0450
       1571.2954
       1587.5528
       1562.9979
       1542.0081
       1538.5957
       1553.0886
       1578.9807
       1594.6637
       1579.3869
       1540.1074
       1500.1210
       1473.6451
       1464.6111
       1478.0175
       1481.3630
       1448.9109
       1426.6454
       1387.1139
       1307.3874
       1206.2989
       1142.6846
       1168.9194
       1255.7056
       1334.7764
       1370.2250
       1352.2926
       1324.4014
       1307.6611
       1296.3712
       1332.0954
       1417.1404
       1493.8287
       1529.1083
       1547.7392
       1557.6585
       1573.3877
       1588.0492
       1565.4659
       1516.3615
       1438.1038
       1372.9968
       1368.9142
       1415.1081
       1469.4712
       1487.0661
       1471.8498
       1457.1443
       1484.4810
       1534.3250
       1546.0852
       1504.6502
       1448.6301
       1412.4918
       1376.5996
       1364.2243
       1378.6542
       1411.8814
       1440.7620
       1447.8431
       1443.2965
       1401.9613
       1344.6146
       1282.4892
       1247.9980
       1275.1505
       1310.7271
       1335.6871
       1372.6074
       1413.6479
       1458.9836
       1496.3520
       1507.1555
       1476.5000
       1425.1804
       1396.7797
       1402.7145
       1419.6691
       1424.4420
       1406.9116
       1353.9777
       1311.6164
       1302.1625
       1293.9701
       1256.6929
       1185.9046
       1113.3445
       1079.0850
       1079.9179
       1108.0638
       1147.2887
       1187.5160
       1203.5359
       1169.8562
       1146.9770
       1154.8905
       1177.0610
       1207.8636
       1215.3266
       1212.4514
       1209.5052
       1208.4897
       1212.8827
       1223.8870
       1216.8785
       1159.4101
       1078.1391
       1031.8130
       1046.5429
       1073.3568
       1090.4174
       1108.5157
       1124.0630
       1146.0481
       1162.1010
       1179.2644
       1204.4164
       1233.9067
       1272.8210
       1327.7200
       1381.4628
       1404.3995
       1405.0182
       1437.0585
       1500.6173
       1600.3286
       1683.3295
       1722.5208
       1731.9119
       1727.2938
       1738.5904
       1723.0073
       1697.9158
       1698.9114
       1724.2405
       1715.1825
       1663.9513
       1633.3009
       1630.1743
       1642.9410
       1652.7613
       1618.5223
       1529.4379
       1414.6595
       1342.7200
       1313.8568
       1288.4754
       1244.8400
       1201.4875
       1190.5386
       1246.8707
       1341.2828
       1424.4908
       1503.9919
       1576.2302
       1622.7353
       1655.6481
       1674.0855
       1666.1496
       1645.7952
       1620.3141
       1616.0688
       1629.3999
       1644.1599
       1658.9847
       1670.8970
       1660.5867
       1653.2362
       1663.9414
       1661.8247
       1668.8491
       1667.2597
       1674.1406
       1668.6576
       1627.8628
       1559.0359
       1475.9467
       1418.6890
       1396.5398
       1381.0248
       1354.4163
       1313.3881
       1245.9660
       1175.9914
       1143.5635
       1166.3967
       1236.3486
       1324.5919
       1406.4814
       1455.6493
       1460.1252
       1452.8864
       1459.3456
       1479.8931
       1529.3000
       1581.9229
       1618.6390
       1633.9505
       1619.8785
       1609.6901
       1602.8007
       1601.4059
       1612.1006
       1637.2245
       1684.2045
       1718.0894
       1732.4765
       1709.4121
       1649.1563
       1565.1670
       1491.1634
       1416.6488
       1379.6662
       1403.6068
       1464.5969
       1537.4569
       1590.8560
       1599.2114
       1581.3913
       1572.0544
       1575.1443
       1593.0793
       1613.1692
       1639.5321
       1675.6359
       1692.4978
       1663.1149
       1625.3608
       1582.5990
       1566.4573
       1579.3329
       1588.8019
       1624.0479
       1673.8987
       1728.4184
       1746.9997
       1723.1174
       1698.5611
       1660.1025
       1654.9297
       1669.6400
       1703.2158
       1752.1205
       1774.6636
       1771.2149
       1743.9335
       1702.1661
       1667.2379
       1633.1214
       1593.2516
       1594.9378
       1625.8140
       1657.6820
       1667.4101
       1629.1670
       1603.3900
       1609.8756
       1630.5140
       1615.9304
       1629.4702
       1643.4381
       1627.7196
       1612.0009
       1588.4913
       1547.4099
       1509.0689
       1483.3706
       1463.2218
       1457.3569
       1473.7752
       1510.7989
       1550.2289
       1588.5517
       1613.3905
       1632.1540
       1650.5407
       1647.0947
       1636.9822
       1637.0879
       1624.9729
       1626.7604
       1615.3809
       1603.0456
       1618.1378
       1581.0581
       1482.2578
       1353.7241
       1237.8798
       1163.9771
       1150.9710
       1187.0709
       1244.9377
       1312.9369
       1405.0719
       1492.9015
       1539.1542
       1540.0786
       1521.2149
       1531.6070
       1531.3627
       1534.0057
       1531.6594
       1520.2524
       1521.0263
       1513.9091
       1516.5841
       1517.1477
       1532.6839
       1550.1660
       1573.0244
       1595.0938
       1593.1923
       1579.7022
       1572.0364
       1560.6774
       1535.9059
       1512.8769
       1516.3064
       1559.4010
       1613.0133
       1645.4448
       1663.8079
       1673.2732
       1702.8044
       1683.1195
       1654.4620
       1643.0876
       1604.8927
       1558.1138
       1520.9529
       1499.0664
       1499.6657
       1537.6750
       1600.7804
       1648.6733
       1638.8113
       1582.3227
       1509.3458
       1418.1119
       1334.4180
       1313.9296
       1372.1113
       1457.0469
       1528.2465
       1564.3955
       1562.1691
       1538.4746
       1505.0189
       1493.1802
       1512.1587
       1549.6222
       1606.5125
       1632.5379
       1647.1996
       1679.3315
       1689.2660
       1695.5699
       1709.8555
       1727.8275
       1743.9211
       1749.4464
       1718.7047
       1667.7241
       1591.2636
       1511.6571
       1461.3926
       1469.7610
       1523.6788
       1577.3399
       1585.4564
       1580.7339
       1604.0240
       1619.8826
       1653.2223
       1690.9722
       1719.8848
       1753.0048
       1762.4487
       1752.7275
       1739.1413
       1713.1924
       1682.6967
       1637.9959
       1598.7140
       1587.1765
       1610.5310
       1625.0735
       1652.4299
       1664.2024
       1643.1126
       1630.8868
       1625.4493
       1634.2589
       1645.8249
       1635.8235
       1643.2438
       1657.5946
       1685.1662
       1722.6872
       1735.5228
       1704.5621
       1662.0128
       1607.0450
       1597.0317
       1626.7849
       1657.5918
       1660.9929
       1668.5016
       1658.5958
       1641.5191
       1621.0287
       1608.2367
       1575.3746
       1537.2540
       1497.4654
       1494.3698
       1519.7170
       1552.5704
       1587.6998
       1631.3242
       1673.2853
       1698.3844
       1717.9408
       1726.8086
       1731.6822
       1739.5485
       1716.6525
       1689.9257
       1682.7029
       1650.0548
       1624.2614
       1599.3445
       1558.7256
       1547.6444
       1549.6060
       1558.3559
       1578.2780
       1611.9249
       1668.7627
       1706.0433
       1731.4380
       1740.8132
       1720.9505
       1680.0551
       1657.2302
       1642.0459
       1665.7263
       1692.2489
       1722.8105
       1726.5917
       1712.3638
       1684.7759
       1661.9520
       1656.3916
       1671.2174
       1688.2681
       1696.5686
       1696.3510
       1679.4146
       1670.6382
       1640.3308
       1594.3421
       1530.4417
       1479.0189
       1456.1590
       1478.8478
       1505.9264
       1521.0779
       1536.6629
       1542.1849
       1547.9835
       1538.2531
       1522.0917
       1507.8092
       1511.6660
       1525.5927
       1552.4509
       1568.4617
       1550.6229
       1504.7410
       1493.7841
       1508.5916
       1530.4566
       1569.7115
       1622.3002
       1647.6353
       1683.3967
       1643.4343
       1636.9738
       1639.6331
       1645.8389
       1637.8580
       1623.7851
       1638.2231
       1645.3230
       1663.1537
       1658.2616
       1641.7881
       1609.8994
       1577.5857
       1572.1573
       1587.9863
       1595.5743
       1616.4598
       1649.7568
       1690.7520
       1700.3772
       1687.2816
       1689.9874
       1715.2093
       1736.4921
       1742.1998
       1746.9530
       1746.9976
       1728.9563
       1704.6012
       1698.4480
       1702.7040
       1733.1913
       1758.7245
       1785.1491
       1787.1768
       1772.4021
       1757.4594
       1723.2996
       1697.8692
       1652.4036
       1607.6952
       1602.2459
       1565.8790
       1544.3394
       1548.0714
       1561.3917
       1592.0844
       1633.1725
       1674.2052
       1687.3740
       1699.2951
       1720.1628
       1731.5529
       1738.6975
       1760.8622
       1767.8841
       1765.1054
       1775.5417
       1751.2664
       1719.1608
       1690.6288
       1663.8531
       1636.0694
       1620.2050
       1609.6218
       1617.9015
       1638.3593
       1649.9441
       1673.6330
       1700.6657
       1726.9010
       1729.4072
       1738.6436
       1712.7597
       1664.1073
       1641.0267
       1617.7803
       1628.8934
       1650.1119
       1651.6535
       1655.6028
       1670.1013
       1679.2884
       1698.6113
       1725.9558
       1735.3306
       1728.0768
       1738.5367
       1748.4838
       1751.2284
       1748.1148
       1723.0353
       1695.3346
       1678.9774
       1676.6608
       1694.8339
       1757.0161
       1781.7868
       1791.0021
       1799.7082
       1803.3009
       1819.3792
       1811.6269
       1813.0383
       1808.0889
       1811.0789
       1798.9596
       1789.2170
       1778.2289
       1784.7309
       1769.2544
       1748.6351
       1764.7089
       1778.7953
       1784.0831
       1787.7225
       1803.5639
       1801.4136
       1791.5892
       1770.1116
       1763.7695
       1754.0223
       1746.4466
       1735.9378
       1734.1411
       1716.3902
       1698.7023
       1698.1304
       1701.8623
       1735.3930
       1743.6745
       1742.2478
       1742.7763
       1709.7331
       1700.0055
       1689.5771
       1691.0159
       1725.4318
       1744.7117
       1748.6542
       1732.1804
       1738.4239
       1750.2187
       1763.2063
       1776.7241
       1752.5224
       1711.2363
       1690.6483
       1705.0528
       1703.3995
       1723.4433
       1718.5660
       1695.4821
       1671.6454
       1658.4380
       1639.8991
       1614.6908
       1599.6799
       1598.3720
       1581.9294
       1571.4928
       1540.8324
       1534.1321
       1509.8722
       1530.4493
       1561.7530
       1565.4870
       1565.3600
       1570.6646
       1576.6398
       1605.5131
       1648.5676
       1642.2828
       1617.5832
       1597.7679
       1584.8173
       1570.4147
       1576.9836
       1556.1696
       1533.7938
       1536.8992
       1544.8429
       1595.0242
       1664.0367
       1712.9049
       1730.6550
       1740.9070
       1728.2769
       1719.9360
       1707.7611
       1716.7933
       1695.5986
       1680.1065
       1677.7124
       1659.5033
       1658.5154
       1672.3170
       1699.2816
       1694.6509
       1720.2428
       1715.5311
       1713.5404
       1692.1766
       1651.5555
       1658.1213
       1656.8406
       1665.6918
       1655.9933
       1660.7605
       1656.8968
       1644.5392
       1633.3659
       1643.8991
       1635.6997
       1602.6921
       1552.9806
       1538.4901
       1550.6907
       1582.7110
       1611.3079
       1631.2742
       1626.1085
       1626.0674
       1618.9842
       1630.9597
       1635.3354
       1620.5399
       1614.3418
       1619.0864
       1600.1268
       1594.0839
       1601.8247
       1580.3467
       1591.6828
       1610.4597
       1676.9679
       1669.1582
       1668.1907
       1686.1313
       1686.5423
       1696.4633
       1697.0989
       1705.4308
       1716.9461
       1712.1806
       1713.8380
       1711.1712
       1721.5810
       1734.6450
       1726.3194
       1709.8123
       1681.5016
       1652.4441
       1625.1343
       1624.6014
       1607.9837
       1585.2855
       1577.0462
       1588.3891
       1604.2725
       1624.9654
       1645.1291
       1681.1711
       1678.8819
       1680.6652
       1668.1704
       1666.1230
       1682.3962
       1678.2966
       1692.2193
       1679.9501
       1648.0438
       1614.4805
       1577.1790
       1599.0462
       1608.4327
       1643.0156
       1670.2673
       1686.2517
       1691.3121
       1678.0031
       1665.1352
       1679.0096
       1662.0411
       1668.7568
       1669.9666
       1664.2239
       1684.0379
       1696.8035
       1691.2316
       1676.3040
       1655.7512
       1641.2425
       1623.0135
       1592.7627
       1579.2716
       1563.0019
       1545.5645
       1530.8473
       1523.3605
       1543.1152
       1575.2305
       1576.5285
       1574.2950
       1545.9754
       1556.9318
       1554.7793
       1553.2299
       1545.1870
       1545.4113
       1543.1468
       1530.1678
       1546.1490
       1557.5543
       1573.5998
       1584.1356
       1612.6984
       1611.8032
       1634.5687
       1628.8391
       1640.1840
       1618.4150
       1620.5261
       1605.9338
       1588.3816
       1572.8576
       1553.6272
       1537.8020
       1546.5347
       1545.6462
       1562.9981
       1571.6832
       1575.9915
       1571.7537
       1563.8795
       1537.3808
       1530.9821
       1541.1963
       1535.2875
       1537.0927
       1541.1410
       1537.4940
       1526.0384
       1549.7916
       1561.9721
       1577.4630
       1567.8927
       1540.5584
       1524.5949
       1502.5954
       1517.4149
       1526.9208
       1554.5229
       1552.3465
       1559.0026
       1549.6514
       1555.1711
       1568.8104
       1564.0061
       1550.9210
       1534.9327
       1531.6472
       1538.2282
       1570.8096
       1561.0232
       1569.7924
       1564.4664
       1563.5468
       1576.5807
       1587.5814
       1609.9940
       1617.9392
       1616.0711
       1633.4979
       1604.1825
       1588.1300
       1572.7496
       1559.5659
       1555.4543
       1563.6327
       1563.5449
       1562.4439
       1538.0995
       1541.6246
       1537.2752
       1558.0499
       1597.6358
       1568.4874
       1574.9872
       1549.4546
       1552.6302
       1557.4500
       1551.0014
       1577.0142
       1571.8178
       1556.3776
       1539.7301
       1532.7798
       1519.6061
       1530.4646
       1538.9644
       1549.0386
       1559.7950
       1591.8834
       1576.5508
       1565.0654
       1560.2230
       1540.0673
       1556.3955
       1575.0619
       1565.0948
       1573.8348
       1567.5141
       1537.9001
       1538.3474
       1549.9632
       1523.3096
       1531.2078
       1552.6843
       1559.9821
       1547.0477
       1565.0562
       1561.8632
       1565.8580
       1545.5718
       1521.1906
       1526.3429
       1534.5613
       1540.7595
       1549.1974
       1585.8831
       1563.2436
       1564.1099
       1536.6855
       1528.7422
       1508.6128
       1512.2096
       1513.3070
       1516.4788
       1525.9880
       1522.9501
       1533.4243
       1537.0185
       1518.2246
       1521.2389
       1501.0991
       1493.2952
       1470.6099
       1463.0897
       1474.7417
       1479.2509
       1481.2919
       1495.5653
       1474.1100
       1474.1798
       1483.3122
       1490.8710
       1505.0921
       1520.1934
       1526.9055
       1552.1760
       1514.6575
       1504.6334
       1496.3118
       1489.8262
       1495.9656
       1498.9649
       1484.6340
       1472.9076
       1461.9156
       1421.9428
       1404.7070
       1420.0583
       1402.1596
       1409.8936
       1393.3137
       1403.9096
       1420.8680
       1434.4334
       1432.7429
       1458.0455
       1462.2027
       1465.9154
       1455.8893
       1469.1950
       1485.2644
       1487.5366
       1492.2892
       1498.3547
       1501.3108
       1494.9392
       1456.4869
       1439.5739
       1443.9157
       1435.3039
       1445.9928
       1444.6059
       1451.0162
       1439.4814
       1436.6166
       1445.0735
       1466.6790
       1481.9264
       1499.7640
       1520.0108
       1525.6320
       1522.0983
       1534.7701
       1526.6417
       1508.5761
       1512.2885
       1506.7171
       1498.9490
       1488.5337
       1482.1742
       1478.3638
       1447.7512
       1446.4206
       1461.6754
       1459.4035
       1454.8688
       1456.2890
       1447.2584
       1402.4998
       1404.9055
       1350.4655
       1313.2170
       1305.1696
       1292.4698
       1303.6937
       1322.2970
       1338.4428
       1365.8153
       1395.8123
       1410.3563
       1419.5246
       1435.0932
       1443.1546
       1440.4291
       1444.2364
       1434.0047
       1429.5610
       1415.7433
       1419.2304
       1428.6173
       1437.0940
       1440.1968
       1438.4514
       1460.9686
       1457.7591
       1475.2039
       1476.3892
       1481.7225
       1486.2503
       1473.3114
       1440.8918
       1432.5175
       1412.9346
       1412.6917
       1387.9074
       1400.3158
       1394.6677
       1389.5862
       1398.9593
       1395.8051
       1401.6142
       1387.2179
       1402.7511
       1397.3710
       1424.1106
       1435.9900
       1433.6121
       1430.0036
       1430.4023
       1425.0020
       1426.5998
       1428.6017
       1432.0007
       1429.9898
       1427.4406
       1451.1927
       1431.9860
       1436.7725
       1423.5708
       1423.6000
       1423.6000
       1423.6000
       1423.6000
      353.000
      367.400
      366.800
      367.000
      365.400
      367.200
      367.800
      366.000
      366.800
      366.200
      365.800
      366.400
      366.600
      367.600
      367.400
      365.200
      365.000
      367.000
      367.400
      367.000
      366.200
      365.800
      366.000
      366.200
      367.600
      366.400
      366.400
      366.800
      366.200
      365.200
      366.000
      366.000
      366.800
      365.400
      365.600
      365.200
      365.200
      365.400
      365.400
      366.200
      365.000
      365.800
      366.600
      366.600
      365.800
      366.200
      365.800
      365.800
      366.000
      368.400
      345.200
      349.600
      352.000
      352.800
      352.000
      351.800
      351.400
      352.000
      354.400
      353.400
      353.400
      353.000
      351.600
      351.800
      351.600
      352.800
      353.200
      352.600
      350.800
      351.200
      353.000
      353.400
      352.400
      352.400
      350.800
      351.400
      351.400
      350.800
      351.600
      351.000
      350.800
      350.400
      351.400
      352.400
      352.200
      351.800
      350.400
      349.400
      350.800
      351.800
      352.000
      352.000
      349.600
      349.200
      350.800
      350.800
      350.600
      351.200
      352.200
      350.800
       373.07513
       374.44262
       381.51116
       380.84063
       368.35700
       372.15735
       371.47585
       379.53601
       380.79344
       370.60227
       373.53345
       377.88433
       373.45321
       370.29388
       381.17302
       371.98814
       375.77803
       381.41301
       375.62289
       389.54533
       373.50367
       377.46919
       367.95477
       372.12140
       372.74076
       376.34564
       373.21589
       369.18282
       373.82764
       374.10376
       375.00529
       378.52542
       380.56733
       390.60340
       381.12045
       379.04850
       371.43207
       378.69690
       387.30037
       374.24421
       375.72858
       375.10393
       380.85653
       374.28541
       373.76073
       369.94108
       371.60144
       374.79175
       374.82045
       373.80398
       379.67741
       373.58294
       374.49411
       382.91953
       372.73134
       376.97170
       373.88185
       379.02882
       378.03597
       370.63292
       378.97782
       374.45475
       374.73233
       384.43202
       377.39955
       373.62047
       384.32364
       383.56253
       384.43821
       383.72421
       375.17842
       387.85126
       380.83033
       366.01185
       378.66870
       381.36108
       381.65825
       378.60693
       380.17443
       370.19150
       369.91336
       380.77381
       395.10494
       387.81839
       374.65079
       381.44391
       377.78766
       377.59983
       388.93265
       380.73474
       379.12543
       378.61507
       373.66003
       374.37163
       376.29448
       369.19990
       379.69208
       377.53551
       364.27268
       372.41709
       373.27282
       369.12284
       378.91820
       372.80219
       380.10674
       385.58359
       372.90414
       366.72322
       371.31040
       371.35805
       369.73322
       373.07717
       383.98774
       383.17610
       386.13276
       378.76428
       378.57416
       376.91791
       371.26558
       373.13980
       372.35612
       369.70848
       378.14017
       379.64056
       365.45531
       374.39907
       372.86525
       379.12426
       376.60378
       376.99569
       370.79887
       372.32131
       377.29585
       373.94946
       374.56025
       385.32251
       372.45812
       379.74031
       378.90058
       384.29792
       392.25931
       374.51568
       374.15125
       371.89027
       376.47086
       368.40217
       381.90004
       386.47158
       369.03329
       377.94891
       374.94017
       369.10518
       373.16630
       378.12480
       371.68796
       371.72576
       365.59512
       369.03104
       375.39556
       380.24001
       375.26027
       386.01329
       387.72630
       371.69202
       373.65873
       373.13960
       371.29159
       372.78423
       376.61501
       378.30624
       375.45916
       376.67511
       382.33947
       375.17002
       371.04419
       375.39086
       379.08787
       371.95787
       371.10067
       384.63150
       400.33508
       369.27054
       376.42654
       373.34159
       374.34539
       375.36658
       374.00601
       376.19701
       372.06944
       381.36229
       372.61371
       373.51829
       372.06286
       370.11863
       369.27687
       375.21274
       383.19948
       373.53419
       378.27225
       379.47061
       374.16322
       377.22684
       377.88110
       394.30510
       407.00456
       383.15559
       376.85282
       373.10600
       374.46346
       374.38487
       372.14925
       374.83719
       377.46080
       374.22848
       372.64449
       369.31309
       371.43229
       373.37034
       367.25498
       378.72618
       380.76977
       372.71501
       379.09619
       379.33412
       367.83699
       373.56161
       376.34460
       372.22420
       374.59397
       372.27683
       369.68816
       374.91905
       380.51437
       386.87934
       380.11419
       374.64544
       376.99950
       377.67053
       372.08245
       369.05671
       375.40702
       382.88364
       383.91841
       379.70112
       366.74685
       371.49548
       385.27937
       379.87593
       373.63314
       366.49708
       370.84741
       376.13729
       382.23778
       371.36531
       367.13307
       374.09706
       373.26173
       375.06734
       389.49886
       386.11282
       377.88885
       380.74694
       382.03411
       375.00718
       370.48263
       382.38030
       381.77695
       377.04478
       372.16947
       376.43933
       376.16716
       378.61599
       381.59327
       382.79717
       380.68804
       378.11814
       378.98645
       378.50536
       381.89101
       376.85954
       370.24503
       373.59803
       375.63775
       374.90024
       372.92349
       370.37252
       384.97276
       388.15515
       379.38893
       374.81659
       374.07003
       380.12525
       372.58081
       379.14259
       380.01767
       371.85014
       381.12036
       384.08050
       370.15826
       368.64863
       375.13154
       372.40370
       379.69792
       375.66311
       368.99989
       376.61184
       382.41300
       382.36367
       380.00671
       375.01766
       376.24608
       381.31765
       375.18466
       371.87957
       372.50812
       376.64946
       386.74861
       378.02120
       369.62047
       373.96544
       373.62670
       374.35644
       378.99631
       379.27781
       377.52287
       377.02201
       370.39109
       376.71982
       374.88712
       369.00502
       384.70245
       394.76127
       381.10170
       374.48618
       370.44029
       372.20383
       370.38011
       372.99702
       380.91931
       382.14994
       378.16561
       375.08304
       382.06024
       375.75177
       371.62614
       378.50167
       379.48410
       377.33855
       372.90753
       372.45986
       375.95997
       376.81477
       372.16457
       375.43943
       376.52621
       373.43004
       372.48766
       373.37589
       372.24246
       364.89709
       370.42904
       375.53896
       373.02167
       376.21977
       372.29027
       375.11363
       381.29628
       373.42627
       370.42129
       386.97361
       382.79649
       365.41879
       379.28944
       390.32222
       380.66253
       375.73505
       379.63467
       376.77590
       371.29040
       387.65899
       394.17598
       379.02583
       372.21050
       376.36130
       381.67255
       382.54659
       376.39342
       373.04938
       376.77046
       372.26579
       367.07468
       369.23620
       377.31686
       384.49568
       379.30511
       370.83211
       371.43504
       374.91451
       373.30063
       374.28940
       371.32712
       371.73998
       379.77301
       377.99143
       377.57921
       378.99704
       376.41367
       374.56816
       375.32518
       384.50942
       378.96281
       373.07805
       373.10685
       372.78068
       378.84510
       381.59082
       378.21216
       373.19839
       373.29621
       372.53450
       376.07968
       375.51899
       370.96579
       372.37981
       372.69545
       372.86411
       374.74426
       374.11788
       369.48298
       374.68936
       375.97957
       374.63143
       375.05812
       375.68659
       378.17460
       372.45943
       375.45616
       386.12231
       383.18594
       373.74510
       371.33444
       372.72889
       377.13186
       383.10408
       383.69082
       378.62633
       378.92300
       377.74178
       374.87407
       379.85478
       383.69594
       377.39289
       378.96702
       377.85836
       368.13036
       376.13290
       383.41575
       377.81496
       374.30153
       370.53177
       368.78160
       379.92900
       375.39989
       368.89943
       379.32104
       381.58096
       382.86801
       379.41460
       371.98337
       374.27556
       378.50545
       372.73475
       371.91165
       375.26212
       378.19794
       376.01700
       381.77300
       381.15759
       372.71410
       372.60489
       372.36817
       372.23660
       379.45480
       377.57551
       378.26739
       373.40567
       374.99532
       376.71042
       388.24639
       384.31036
       374.42906
       387.33722
       385.74490
       378.82188
       379.96353
       378.06615
       368.49238
       373.08022
       376.05738
       369.63263
       380.25109
       378.13258
       378.46579
       382.12090
       374.59190
       368.10493
       370.89116
       379.01088
       370.86091
       375.18427
       375.93461
       383.23214
       386.34086
       378.39993
       376.83555
       377.84922
       380.25595
       374.03621
       369.45246
       381.69925
       379.72711
       370.90000
       376.93974
       386.14859
       379.97632
       378.13406
       371.15405
       380.18487
       378.31268
       377.45185
       383.60561
       382.60598
       374.06317
       373.75877
       380.68707
       376.98001
       373.16821
       379.49262
       376.74999
       368.13660
       368.68826
       371.59731
       381.21388
       377.83151
       373.24115
       377.92594
       377.52500
       375.98067
       371.81826
       370.67227
       384.02392
       385.65301
       381.50253
       375.11676
       374.48804
       376.96242
       377.36499
       376.20057
       378.84943
       375.31950
       375.60604
       378.45067
       373.80525
       374.88105
       381.56107
       374.00964
       377.89760
       375.43421
       368.76507
       376.02917
       383.47244
       378.98698
       375.85402
       374.69981
       378.79413
       385.78887
       373.64442
       374.71241
       378.78834
       388.22163
       383.84928
       380.53402
       377.87072
       375.78187
       374.69565
       371.17330
       375.40127
       376.18872
       371.37794
       372.18120
       385.75487
       381.44663
       377.71327
       377.25659
       375.72673
       372.21376
       381.74632
       383.32445
       376.92025
       373.81507
       368.28015
       373.16556
       382.90083
       380.01590
       374.46923
       370.20154
       384.84594
       378.91670
       371.67732
       377.40990
       381.52279
       391.48946
       380.65620
       373.83706
       372.12629
       375.08995
       377.31508
       374.54491
       378.92358
       373.13004
       372.12654
       376.73807
       379.85097
       375.91290
       374.32432
       374.82649
       375.51802
       369.58620
       368.83404
       371.33110
       379.84865
       376.12241
       371.47688
       375.82415
       377.33306
       373.29097
       370.42428
       378.86157
       381.42195
       378.64870
       380.94174
       381.54033
       375.94375
       373.68574
       387.93850
       386.96681
       385.64104
       383.53112
       374.87400
       370.46641
       380.70639
       378.35593
       379.70743
       374.07113
       375.96802
       378.37649
       373.20685
       373.39777
       376.24251
       370.60735
       373.85113
       376.58445
       376.04164
       379.05809
       378.46510
       372.77725
       372.42916
       388.42676
       382.58881
       372.95744
       381.66285
       373.27312
       378.40788
       388.79851
       378.58172
       378.55287
       376.60801
       383.53208
       378.05631
       368.16731
       378.16035
       371.72381
       368.87775
       373.22197
       369.68070
       376.07683
       384.10638
       375.18167
       377.95203
       384.42810
       382.05906
       371.26546
       376.70229
       375.75012
       377.36808
       383.26882
       377.39071
       378.65479
       377.92653
       384.28843
       385.51345
       375.27850
       377.70959
       377.86419
       374.78531
       388.86333
       387.13086
       377.81421
       378.21155
       373.26552
       375.25550
       382.58102
       379.94150
       377.24328
       381.25504
       381.50856
       379.84905
       374.54885
       373.00224
       373.03617
       384.61850
       378.70086
       375.21003
       378.32732
       374.17157
       372.64638
       369.69050
       375.14724
       377.98022
       374.94146
       374.00225
       378.18879
       369.59480
       383.84300
       379.80526
       375.57441
       376.81152
       379.91265
       377.81096
       382.36995
       371.85378
       375.04136
       384.07617
       382.50918
       374.84201
       381.95336
       383.22407
       378.46511
       373.20474
       370.21185
       366.87294
       374.72493
       379.92784
       386.36034
       383.56826
       383.64998
       369.45047
       367.03819
       371.61217
       371.80055
       367.92907
       377.67492
       383.63287
       374.45499
       369.97687
       384.16219
       385.73781
       372.69222
       372.38869
       380.99367
       380.96020
       383.30713
       379.42728
       376.20805
       373.02470
       368.64022
       373.22125
       378.68240
       383.68445
       377.58415
       371.14692
       374.14004
       378.46277
       374.38956
       380.28707
       379.78109
       379.31783
       383.27959
       383.03573
       384.62587
       380.36859
       371.67574
       374.04619
       379.62172
       374.89600
       382.35679
       379.92700
       375.39086
       375.96593
       383.31367
       379.50096
       372.73830
       373.39976
       371.51096
       383.49113
       378.51872
       374.75540
       377.47748
       379.26713
       384.38510
       375.30914
       376.75309
       379.83386
       375.78692
       377.42269
       381.07996
       376.89631
       374.84709
       376.36575
       377.07504
       376.28093
       394.54684
       383.86256
       379.32105
       383.92407
       377.21380
       376.73175
       383.74655
       382.33745
       373.56580
       373.26591
       372.53343
       379.62166
       379.33135
       375.46789
       377.97158
       386.94367
       378.56934
       372.62976
       382.61208
       386.15940
       386.41883
       378.25913
       382.53402
       375.64374
       373.92123
       385.79815
       381.58641
       376.89552
       378.51048
       382.13558
       381.53824
       372.93718
       376.50104
       380.80086
       373.65830
       369.58383
       375.45195
       374.82434
       374.68490
       381.08464
       370.56157
       373.64403
       373.57136
       375.82692
       374.91428
       376.73593
       382.83110
       375.32537
       370.43521
       376.02527
       377.45157
       373.06840
       376.32109
       375.58567
       371.53601
       375.61572
       371.60982
       377.30790
       377.41683
       377.01225
       379.82874
       374.12227
       373.57077
       384.87783
       389.66962
       380.13516
       380.57653
       380.18905
       371.72088
       378.64452
       375.87106
       382.34765
       378.20697
       382.51608
       377.01553
       378.58658
       378.38935
       396.01864
       388.72938
       376.47647
       382.44681
       383.13143
       379.88864
       375.94352
       375.21362
       377.66134
       374.19678
       373.41227
       377.40241
       374.39194
       379.89208
       375.93205
       377.08502
       377.76468
       373.57946
       376.31394
       372.74399
       372.71300
       373.45599
       377.30979
       371.79063
       382.57737
       384.17712
       370.21300
       379.05891
       374.03513
       388.82490
       408.58239
       385.38318
       371.57585
       374.80086
       374.61355
       384.29293
       381.46842
       382.13277
       381.45474
       385.06211
       374.24450
       383.20540
       383.00745
       390.18422
       386.40440
       378.93976
       379.51153
       376.67007
       378.77011
       377.47412
       374.32341
       384.69534
       384.28279
       383.42394
       376.86091
       381.72878
       377.70533
       371.83594
       381.97170
       388.72706
       379.20867
       385.50900
       379.85503
       377.73872
       376.00585
       381.82488
       377.08934
       371.63426
       379.47348
       379.62037
       391.10922
       383.03902
       384.37753
       384.16329
       379.28396
       381.33779
       393.19412
       381.87543
       378.77949
       383.29761
       381.68211
       379.93987
       408.41561
       389.78463
       372.32576
       384.56675
       381.93743
       374.39512
       380.37876
       381.21398
       377.96003
       388.15715
       379.29930
       378.59650
       372.95666
       377.55684
       379.69870
       377.09887
       374.98857
       386.56022
       387.43787
       382.36051
       382.55747
       385.86163
       386.60898
       383.40883
       380.55252
       373.75413
       369.48782
       386.28732
       384.21296
       380.65305
       384.01835
       377.49462
       383.86786
       377.01606
       378.59576
       378.81743
       375.07228
       379.78512
       386.81324
       407.45787
       383.06074
       386.03684
       388.88908
       389.16840
       386.35889
       378.46782
       382.14148
       378.87879
       375.92395
       384.83309
       393.73039
       388.88456
       385.03403
       383.51175
       376.43031
       380.78001
       377.57981
       382.92532
       380.19785
       374.98834
       376.79127
       374.88474
       380.42159
       378.92666
       378.06246
       380.05362
       382.33146
       379.70110
       375.36094
       369.75041
       382.90042
       386.88311
       375.44962
       376.03593
       382.88488
       379.00933
       388.25958
       389.39944
       377.34408
       382.87876
       379.66830
       375.80152
       387.36023
       379.99726
       379.74014
       387.40113
       386.01877
       383.67085
       377.06012
       375.06854
       377.39223
       383.40713
       388.37787
       378.61422
       376.70083
       372.97273
       376.51913
       383.61524
       378.30181
       397.89346
       387.11862
       377.92064
       388.78588
       385.55447
       371.14295
       372.91068
       381.60226
       391.34802
       386.93573
       386.14351
       382.35709
       381.30519
       377.76095
       381.07873
       379.44590
       382.45339
       382.60251
       376.76633
       390.54708
       380.08366
       374.37408
       373.85504
       375.82171
       376.77224
       405.91924
       395.43977
       375.35722
       372.21325
       375.47324
       373.39180
       373.58647
       387.01660
       382.43768
       387.53560
       385.36203
       376.42479
       378.66567
       387.22474
       384.02363
       382.85443
       387.00935
       379.83194
       375.02206
       379.83483
       385.86475
       377.00688
       385.76123
       388.46318
       386.76027
       380.80084
       386.23413
       379.91425
       382.61722
       379.45728
       380.83262
       385.76673
       378.03877
       383.81209
       375.00628
       377.12148
       378.08952
       393.20561
       385.66335
       377.71262
       387.32982
       383.44738
       371.08334
       385.35930
       378.15180
       376.63470
       376.70292
       375.34850
       377.30182
       379.09836
       376.73931
       373.90747
       385.35631
       380.51636
       381.72800
       391.01297
       379.02535
       376.73636
       378.78115
       373.53958
       384.98518
       375.80635
       374.49686
       374.78860
       380.80400
       388.03153
       378.27692
       377.88219
       380.11921
       377.57894
       383.85972
       379.92212
       383.47415
       374.44521
       375.94328
       380.68748
       387.05801
       382.68151
       383.74679
       374.69208
       378.48115
       376.26024
       384.07760
       389.17436
       378.06122
       381.92566
       379.90740
       377.79769
       384.76044
       377.62543
       372.47211
       380.13778
       379.94057
       385.00826
       387.58318
       377.61320
       377.95031
       380.32801
       377.15790
       383.39685
       381.94980
       375.00258
       379.62608
       377.33957
       379.34053
       371.44198
       382.03822
       380.79364
       386.21891
       383.91393
       378.70702
       389.67260
       381.25553
       378.82037
       375.54396
       384.74583
       383.48804
       379.82859
       380.03494
       380.77630
       373.17086
       388.37520
       382.34328
       379.48321
       383.53043
       386.28046
       391.81015
       383.61454
       377.23249
       379.03973
       377.35589
       382.87076
       381.47365
       392.71326
       387.92461
       385.35607
       381.97450
       384.71039
       373.28669
       379.23932
       377.20917
       381.66940
       385.22308
       384.36046
       387.60406
       398.01423
       390.72980
       375.22001
       376.46447
       381.97268
       381.67745
       387.31115
       382.58657
       380.35977
       391.63952
       385.73764
       376.71042
       397.16182
       384.16452
       379.72239
       377.87409
       391.51473
       379.33091
       375.46001
       383.72467
       385.52671
       390.42708
       378.00576
       378.03423
       381.46299
       381.10054
       381.32640
       382.87293
       380.73779
       384.15183
       384.90942
       378.09917
       385.97585
       383.27698
       374.04843
       377.84631
       384.00171
       377.67568
       376.53607
       384.87663
       385.30413
       373.91998
       374.94269
       380.35090
       385.55203
       390.18766
       392.09835
       388.65430
       386.65647
       400.17980
       386.32028
       377.12183
       376.01986
       381.08299
       388.45049
       376.07070
       376.57538
       379.66047
       382.50939
       380.54802
       378.13997
       378.58218
       375.81837
       384.78733
       384.44944
       382.12481
       389.54249
       387.86329
       386.04800
       380.13533
       380.48991
       376.82808
       377.17199
       383.46833
       380.02160
       388.60710
       386.41809
       377.39546
       399.73779
       385.22365
       374.79221
       379.79080
       387.71901
       390.19603
       390.34268
       387.00958
       384.19659
       381.45616
       375.38637
       389.26745
       379.75783
       381.70596
       397.11188
       387.56924
       381.04441
       381.70321
       381.89280
       392.61946
       388.37585
       383.96624
       383.81587
       380.48603
       373.73529
       381.47472
       387.79764
       387.58865
       385.31545
       381.21489
       378.49190
       384.52457
       394.63675
       383.18982
       379.94291
       377.21360
       382.01743
       378.02551
       383.70383
       387.43588
       381.82746
       382.76477
       387.52040
       384.03686
       374.52213
       386.20224
       378.75895
       371.43091
       378.45544
       375.12010
       376.75626
       386.13450
       400.73505
       394.03659
       385.89519
       389.14537
       394.24321
       383.88812
       384.00232
       394.34239
       383.48076
       380.37851
       381.29370
       382.53511
       379.30926
       382.22447
       378.65750
       392.33665
       386.88755
       377.61134
       379.70300
       380.36197
       383.67636
       381.30194
       384.67151
       385.86742
       389.61611
       379.43531
       381.39994
       386.57569
       381.42425
       387.41158
       393.36914
       379.63424
       378.53378
       376.42938
       381.73541
       382.97324
       384.20125
       378.84889
       380.89830
       375.06246
       374.67516
       381.20627
       386.24964
       389.94724
       385.16067
       389.59450
       376.34758
       375.18972
       374.47242
       376.77300
       382.16050
       382.25960
       381.85254
       385.24528
       394.16173
       391.93536
       380.52739
       386.60526
       378.79716
       375.05724
       381.06133
       382.48733
       373.03356
       380.59041
       378.39203
       376.25493
       386.22963
       388.85869
       384.00779
       390.75250
       376.64902
       373.61428
       383.77881
       392.55585
       390.91640
       376.73606
       392.50450
       387.39698
       377.43654
       392.08603
       385.32368
       382.20012
       381.96462
       380.92757
       380.68679
       396.04317
       380.68391
       380.91603
       394.29959
       380.83304
       377.00767
       383.07496
       407.78619
       388.70407
       381.67729
       380.96424
       373.78093
       391.49719
       391.24520
       392.54271
       382.63999
       386.37100
       377.73615
       381.85505
       375.96871
       386.66670
       386.64246
       380.62961
       381.65888
       388.81723
       380.96325
       375.86809
       390.53463
       392.84817
       384.59797
       386.11756
       378.35254
       392.53433
       390.06120
       386.72953
       379.16949
       372.12517
       378.71753
       380.86748
       376.45090
       390.18467
       386.73213
       376.43847
       382.38309
       374.84786
       377.61572
       377.31296
       383.66086
       392.88770
       379.24322
       375.12088
       388.08084
       387.68300
       381.74802
       377.74899
       382.98103
       385.32265
       378.56669
       384.81391
       380.68953
       384.21993
       398.32350
       387.67553
       397.34363
       389.77773
       377.86367
       392.53147
       387.16687
       381.36431
       379.44445
       381.67777
       378.71850
       381.25838
       396.73141
       382.20447
       383.68086
       380.70274
       384.72621
       379.73918
       381.24455
       384.56052
       466.88620
       418.49397
       377.02100
       377.59895
       382.83878
       378.04174
       378.74269
       382.76743
       379.64548
       385.94900
       380.22489
       377.69635
       390.74031
       379.98560
       383.25709
       372.05825
       379.03233
       388.03589
       389.73336
       386.62535
       381.76296
       376.06704
       378.52754
       381.33927
       382.86028
       377.92321
       380.32578
       378.12217
       380.78001
       375.10102
       377.00196
       385.69042
       382.97697
       399.99732
       385.52233
       373.99911
       373.77245
       383.59835
       388.05188
       380.14026
       375.37824
       391.59374
       393.09996
       381.05804
       380.01039
       388.06102
       384.33313
       377.81081
       394.45988
       387.28823
       383.06775
       391.00224
       387.09434
       386.41227
       387.67647
       381.49204
       379.87280
       382.88566
       381.91139
       384.26761
       383.74219
       377.60562
       385.37316
       385.74970
       386.37925
       383.68497
       388.54953
       384.83478
       381.76645
       387.30176
       380.62450
       384.78823
       393.18022
       384.92272
       374.02426
       384.05283
       389.11243
       380.39650
       383.26289
       379.43916
       376.53900
       380.54084
       389.66506
       378.24762
       381.96646
       392.20302
       386.65499
       385.11380
       385.81365
       382.66112
       383.30149
       384.48548
       387.52095
       382.09459
       377.89844
       383.91256
       386.74389
       381.40712
       378.30229
       381.68004
       383.50091
       382.70198
       383.70072
       385.40104
       381.29603
       381.97067
       378.48129
       385.64833
       378.10989
       379.07781
       400.80108
       386.90853
       383.00067
       397.01298
       379.32218
       380.92861
       387.44256
       378.04097
       381.67977
       385.58782
       379.95905
       388.29109
       383.85013
       387.16914
       391.46182
       392.59774
       382.54945
       376.38149
       381.59929
       386.26741
       388.45696
       378.29959
       375.75327
       376.07516
       383.95470
       390.46637
       384.86917
       384.08789
       378.45714
       384.25975
       380.27662
       371.62588
       383.69268
       382.64417
       386.78172
       382.82284
       375.36841
       381.92803
       385.19997
       383.89239
       383.07376
       391.17948
       382.26920
       379.36504
       383.42932
       376.31541
       383.65047
       381.44095
       378.06029
       380.67192
       380.54489
       388.87450
       381.50616
       375.68663
       376.32011
       381.56587
       386.22549
       384.70413
       386.65537
       384.60901
       381.29359
       383.88282
       384.42852
       384.59178
       388.05641
       397.98963
       389.30980
       383.77105
       387.23152
       395.19179
       379.37003
       381.28185
       384.75054
       383.05601
       385.19902
       387.19300
       378.30323
       379.19520
       382.96997
       387.65269
       389.70625
       390.61963
       391.06258
       386.59344
       387.49276
       387.04785
       385.67053
       380.23077
       383.42574
       389.19770
       384.52024
       382.38556
       387.96056
       386.51054
       377.30210
       384.34373
       394.25935
       393.03899
       389.54393
       378.31148
       385.18888
       383.92375
       386.92676
       391.79913
       379.47167
       384.65047
       385.49844
       384.68571
       396.46891
       395.84532
       385.83193
       380.27615
       387.84246
       400.12036
       397.60998
       382.43736
       388.87816
       381.83548
       384.11237
       384.82402
       385.79252
       386.62871
       385.27685
       379.88620
       403.84453
       392.64874
       380.35922
       385.17790
       380.56336
       384.47144
       385.75627
       387.44701
       387.33800
       383.26033
       384.02642
       393.90561
       384.64477
       386.47593
       387.80284
       387.47486
       386.82458
       393.42645
       381.32208
       380.04709
       390.46093
       386.03956
       381.66739
       385.39896
       390.28559
       377.26637
       379.77923
       391.34390
       381.83922
       376.88645
       381.99919
       384.79017
       379.66356
       387.64997
       386.82644
       377.93391
       391.04244
       386.34175
       387.26354
       378.65900
       388.01708
       393.75331
       382.25064
       378.44473
       379.61351
       377.36424
       383.32154
       384.02234
       398.31284
       392.91217
       378.70200
       380.21859
       387.20985
       389.80062
       379.53066
       382.47433
       385.04031
       379.49845
       378.50721
       380.76431
       389.56716
       382.37696
       376.39935
       380.78462
       392.66660
       390.44745
       391.17638
       382.01720
       391.95753
       398.08293
       386.27361
       385.76363
       376.26187
       373.62982
       384.05907
       381.75515
       384.40297
       383.13517
       383.94751
       392.88655
       387.25489
       377.02125
       378.03759
       377.12683
       385.65408
       387.13868
       383.46142
       381.64902
       392.67612
       384.14641
       385.18140
       381.92024
       385.42208
       384.39164
       386.17370
       378.68923
       378.40349
       378.77701
       381.15761
       389.17313
       384.11339
       389.80109
       391.73683
       396.52308
       388.25506
       394.95741
       388.33562
       393.06433
       381.74221
       379.86249
       384.42638
       385.44797
       375.54035
       379.67049
       386.07028
       392.59635
       383.94690
       379.33679
       386.66816
       381.51612
       380.05394
       378.81490
       391.60927
       386.54004
       389.63744
       386.59748
       390.51091
       378.05136
       380.16929
       380.53428
       389.46463
       386.31889
       379.67727
       375.08783
       384.66778
       378.94814
       383.92003
       382.77577
       383.79151
       378.06069
       383.17873
       383.66417
       394.87785
       388.55534
       388.76400
       383.13928
       376.23485
       388.95317
       386.60030
       395.70444
       386.14548
       386.94695
       386.64461
       382.35418
       376.91249
       377.84669
       384.84422
       383.93588
       382.63311
       385.85586
       384.13618
       386.43317
       379.29762
       388.58550
       374.94708
       382.36446
       383.39659
       378.47616
       381.39139
       380.55937
       374.14393
       383.52479
       390.83605
       384.30242
       387.98760
       392.64787
       389.64623
       381.33107
       385.47717
       394.13175
       377.57162
       370.56420
       382.55596
       383.92537
       379.54265
       382.05943
       385.00120
       384.42367
       384.95943
       385.79655
       377.02345
       374.43142
       393.17780
       389.16479
       378.22334
       381.72842
       386.61952
       383.76799
       387.13158
       382.76132
       383.59089
       379.59492
       379.52226
       376.52381
       384.15222
       378.85831
       376.60093
       373.89100
       382.04349
       381.15631
       382.88818
       381.89887
       382.71587
       379.62496
       377.09111
       381.91649
       381.45594
       383.14545
       381.81951
       380.62277
       385.25052
       377.60623
       390.56834
       389.55430
       380.00301
       378.52668
       379.27119
       386.04245
       388.25103
       385.58971
       385.17310
       382.26647
       375.80357
       375.70586
       380.13727
       376.95889
       381.54476
       382.48904
       381.67202
       381.64611
       375.59073
       391.77105
       378.75984
       379.27040
       376.08660
       383.26811
       387.07881
       376.60646
       382.31131
       382.50884
       372.94365
       380.47182
       373.90260
       382.41476
       381.15959
       384.02683
       381.13102
       370.31060
       390.23672
       381.07660
       382.40937
       376.61981
       383.61008
       384.03974
       377.56762
       379.77809
       380.95062
       380.79999
       380.79999
      350.400
      351.200
      350.000
      350.000
      350.200
      349.600
      352.000
      350.200
      350.200
      350.000
      350.600
      352.400
      350.800
      349.400
      349.200
      348.600
      350.200
      351.400
      352.200
      351.600
      348.400
      348.200
      351.400
      349.800
      350.200
      351.000
      350.400
      349.000
      350.400
      349.800
      350.400
      350.200
      349.600
      349.400
      349.800
      349.800
      350.800
      349.800
      350.000
      349.600
      349.600
      349.200
      349.200
      350.600
      349.800
      348.200
      350.200
      349.800
      350.200
      353.400
