/data/ops/data/incoming/CL0_404238481EDR_F0050104CCAM02076M2_spect.TXT
 
Spectrometer Setup:
spectControlByte: 2
imageType: 3
spectromerSerialClock: 1
spectromerSelect: 14
IPBCdivisor: 330
ICTdivisor: 300
startRowUV: 100
stopRowUV: 300
startRowVIS: 75
stopRowVIS: 275
startRowVNIR: 100
stopRowVNIR: 300
VNIRtriggerDelay: 5
VIStriggerDelay: 5
UVtriggerDelay: 5
verticalClockSelect: 2
 
DOLIBS setup:
focusAlgorithm: 0
controlWord: 0
fromLimitSwitch: 0
NshotsToIgnore: 0
NshotsToAverage: 5
Nshots: 1
distToTarget: 1582
>>>>>Begin Processed Spectral Data<<<<<
      343.400
      339.800
      338.800
      339.600
      339.600
      340.200
      340.800
      340.800
      340.800
      339.400
      340.800
      340.200
      339.800
      340.000
      339.800
      340.200
      338.800
      340.000
      338.600
      339.400
      340.600
      339.800
      339.800
      340.000
      340.200
      339.200
      338.800
      339.600
      339.800
      338.600
      338.800
      338.600
      339.400
      339.800
      339.400
      339.400
      337.800
      338.000
      338.200
      338.600
      339.000
      339.400
      338.200
      338.400
      339.400
      338.400
      339.600
      337.800
      338.800
      338.200
       430.44146
       432.86014
       439.10039
       445.48882
       448.60705
       455.26764
       462.56358
       463.15131
       464.46425
       470.22519
       472.74365
       477.44387
       486.10189
       486.43813
       488.37432
       493.90109
       502.24716
       507.87920
       510.98239
       518.63949
       522.66885
       524.57764
       526.29715
       527.76205
       526.42849
       524.79177
       528.10626
       537.96037
       544.32749
       548.31407
       545.37157
       542.79134
       543.93436
       547.05350
       544.86480
       547.00041
       548.61561
       550.32739
       552.83517
       553.97310
       554.22993
       550.60490
       550.21061
       550.35865
       546.02095
       555.29835
       555.40936
       549.87856
       548.24112
       547.99427
       552.72530
       556.03495
       552.82850
       550.11028
       546.01621
       544.73173
       534.32560
       522.12918
       518.28716
       530.53566
       547.78224
       552.47617
       553.34171
       557.24810
       561.35729
       568.03480
       573.80035
       573.99537
       574.01772
       572.54541
       573.84576
       576.98301
       592.20192
       601.72598
       602.45072
       604.75898
       605.42122
       607.90500
       613.41994
       613.36631
       617.65981
       619.60434
       619.35196
       610.65874
       615.49193
       627.57905
       641.32657
       653.67167
       656.85302
       659.66028
       661.73322
       667.03447
       674.88990
       690.96569
       706.66607
       713.82338
       721.42877
       729.75511
       730.40907
       731.38330
       730.60851
       740.77043
       757.79236
       768.18483
       769.63779
       771.16815
       779.95976
       797.46346
       802.60901
       801.15539
       793.84879
       782.24503
       785.98437
       806.33766
       829.03038
       836.51377
       838.42523
       841.17600
       847.21102
       846.83894
       840.23135
       840.75612
       851.72215
       864.45017
       866.18713
       859.46331
       856.67775
       863.99365
       878.50226
       884.59742
       902.85753
       912.74230
       919.23832
       936.29867
       943.43507
       929.92908
       915.96795
       908.92811
       919.58351
       951.39139
       970.84237
       959.10186
       952.71857
       972.83005
       990.30514
       1003.7455
       1007.0693
       1007.1985
       994.22306
       984.81505
       995.65193
       1002.3002
       995.81172
       996.04820
       987.18800
       981.08839
       990.05075
       1013.9428
       1025.2872
       1037.8332
       1049.1890
       1044.2737
       1033.1902
       1013.8168
       1014.4561
       1031.9453
       1034.0560
       1027.8275
       1029.2203
       1045.0252
       1062.2135
       1066.3624
       1067.1385
       1055.8442
       1034.6401
       1020.5029
       1031.6870
       1035.5893
       1039.9249
       1043.6389
       1037.2283
       1024.4991
       1024.2178
       1031.6474
       1042.4768
       1048.4105
       1047.2628
       1051.6639
       1060.2050
       1072.2456
       1071.4820
       1061.7661
       1033.8718
       987.38879
       956.93362
       966.77809
       981.53421
       1023.1722
       1080.2661
       1090.6660
       1049.7675
       1005.8910
       1028.0107
       1087.8749
       1105.7434
       1101.1054
       1106.5501
       1131.5659
       1155.4584
       1150.4914
       1140.7483
       1132.3664
       1136.9859
       1159.0422
       1178.2450
       1176.9790
       1170.2690
       1184.6107
       1181.6709
       1162.4614
       1135.7552
       1134.7519
       1154.5936
       1161.7161
       1174.9375
       1192.3188
       1207.5936
       1216.7878
       1211.4632
       1202.3311
       1193.0800
       1181.6385
       1182.7377
       1189.8825
       1198.6306
       1183.9350
       1144.6615
       1100.4455
       1085.8402
       1088.5336
       1102.1290
       1130.8312
       1165.8183
       1187.7511
       1194.3811
       1188.6966
       1193.3873
       1221.9251
       1245.8241
       1251.2960
       1248.8044
       1227.3057
       1206.3357
       1213.2275
       1234.6466
       1259.6871
       1280.3804
       1284.9061
       1291.5299
       1287.8283
       1278.3806
       1273.4881
       1277.8858
       1265.2258
       1237.0969
       1214.2492
       1212.0641
       1258.0550
       1293.9241
       1302.2099
       1291.4786
       1274.5650
       1278.8193
       1287.3804
       1296.0803
       1306.4692
       1313.2122
       1333.1046
       1345.8055
       1351.8295
       1348.2833
       1325.7592
       1304.9520
       1285.2929
       1270.6264
       1265.6849
       1298.9455
       1331.5219
       1334.6913
       1331.3743
       1326.2782
       1322.0142
       1325.6894
       1320.5253
       1306.6274
       1300.8182
       1295.6012
       1294.2020
       1299.4830
       1289.3709
       1275.8892
       1275.9749
       1293.3575
       1315.1528
       1330.0761
       1347.6254
       1362.1510
       1360.0741
       1356.4429
       1357.1690
       1370.4591
       1370.0460
       1360.4008
       1372.8855
       1388.6365
       1424.8055
       1456.0663
       1442.2799
       1422.0325
       1419.9261
       1440.1868
       1464.7693
       1456.8688
       1449.6074
       1472.1589
       1490.3648
       1482.6069
       1481.4732
       1496.7556
       1504.6443
       1508.6349
       1497.5783
       1475.4154
       1472.6445
       1494.3046
       1512.5770
       1532.0793
       1540.8680
       1537.1418
       1548.3739
       1552.6871
       1548.6613
       1552.5394
       1557.2023
       1552.3372
       1549.8978
       1545.9206
       1561.1538
       1558.4039
       1560.4645
       1572.8043
       1581.5801
       1595.2014
       1596.7099
       1581.6109
       1555.4539
       1553.7560
       1577.4604
       1599.0958
       1600.3043
       1608.9674
       1617.1945
       1623.9176
       1626.4443
       1633.2425
       1652.3597
       1660.0694
       1652.8448
       1658.1979
       1662.7099
       1669.8572
       1668.1833
       1661.0336
       1664.5635
       1665.1032
       1667.6940
       1675.4542
       1699.2931
       1711.2345
       1725.4918
       1719.6030
       1704.1289
       1673.7573
       1656.0432
       1680.3973
       1709.3244
       1721.3536
       1727.8890
       1717.3214
       1717.0627
       1741.4654
       1791.1273
       1814.2384
       1809.2899
       1792.1021
       1740.9731
       1724.7170
       1758.1968
       1780.0567
       1765.8206
       1763.4804
       1778.4319
       1786.9589
       1784.1673
       1774.1759
       1753.6956
       1738.9871
       1736.9443
       1730.6907
       1727.9496
       1717.2889
       1698.5298
       1677.9379
       1635.0308
       1603.8756
       1587.1984
       1581.0529
       1588.2699
       1596.4655
       1602.9036
       1616.7125
       1625.6585
       1628.1727
       1632.3795
       1635.6338
       1628.7296
       1622.7980
       1624.7123
       1634.6986
       1654.0333
       1674.3755
       1687.7679
       1688.9663
       1696.5864
       1695.4326
       1706.5695
       1708.7727
       1703.4198
       1712.7228
       1755.9535
       1808.8119
       1835.3888
       1848.3023
       1876.8864
       1898.0365
       1894.4130
       1900.7981
       1905.1168
       1904.8586
       1919.3786
       1929.2727
       1929.5165
       1938.9192
       1944.3544
       1940.1568
       1937.2701
       1932.3952
       1920.5513
       1908.0978
       1921.7306
       1941.2338
       1945.6880
       1951.5653
       1975.3904
       1984.9830
       1980.1873
       1970.3597
       1962.4513
       1953.2327
       1946.9125
       1919.5778
       1894.0277
       1896.7112
       1897.1491
       1901.6597
       1899.2609
       1875.2209
       1867.2916
       1864.0043
       1841.4091
       1836.2404
       1831.1269
       1825.4119
       1828.5422
       1849.2277
       1868.6726
       1901.6185
       1943.9191
       1990.1033
       2046.6505
       2081.2453
       2116.7587
       2164.3758
       2198.6662
       2236.3516
       2261.3256
       2278.7935
       2312.4308
       2333.5113
       2348.2969
       2351.2950
       2350.6324
       2360.0621
       2353.2603
       2348.1158
       2342.3428
       2365.3049
       2403.0400
       2433.2196
       2457.1456
       2471.8073
       2483.4592
       2487.8232
       2489.1408
       2501.5474
       2503.2671
       2489.3411
       2472.9009
       2447.2586
       2371.0463
       2294.1263
       2317.4714
       2362.5681
       2382.6452
       2456.4381
       2528.2238
       2555.6446
       2554.4389
       2554.8577
       2560.7699
       2558.1399
       2541.3310
       2537.4679
       2553.8232
       2574.1893
       2569.2997
       2569.1224
       2547.6848
       2531.0431
       2535.3642
       2546.0552
       2559.7193
       2566.5052
       2566.1632
       2553.2736
       2555.2030
       2538.0233
       2527.7262
       2515.7869
       2525.4086
       2537.0771
       2536.7610
       2538.8189
       2546.9765
       2554.6218
       2544.8019
       2551.7254
       2542.9233
       2527.4463
       2506.3150
       2485.3584
       2493.8202
       2507.6311
       2481.3523
       2475.5744
       2495.0538
       2508.8166
       2512.5413
       2502.0782
       2494.3071
       2485.8590
       2483.2431
       2468.6500
       2456.9127
       2437.4395
       2443.4102
       2444.6441
       2443.3028
       2433.5803
       2422.5000
       2413.8908
       2422.5537
       2451.8406
       2472.5452
       2487.4091
       2494.6833
       2502.3372
       2490.2080
       2484.2871
       2474.7297
       2480.4544
       2489.2778
       2479.0600
       2476.6164
       2477.8900
       2465.8557
       2454.8729
       2462.0918
       2468.0179
       2469.0568
       2462.6775
       2460.3536
       2480.5460
       2490.7550
       2479.4183
       2463.0929
       2455.3397
       2445.3480
       2453.6728
       2452.0819
       2461.4281
       2458.6118
       2458.1547
       2456.6367
       2472.3994
       2468.9927
       2451.7081
       2429.3803
       2444.8905
       2472.6256
       2485.8871
       2492.6295
       2496.2592
       2495.6155
       2484.3287
       2478.2538
       2458.1170
       2467.6688
       2488.8668
       2487.2687
       2490.1786
       2495.4567
       2475.7542
       2450.7450
       2458.3570
       2493.5294
       2522.6608
       2531.9973
       2537.5635
       2542.5308
       2533.4753
       2524.5380
       2502.2135
       2493.1982
       2469.0688
       2442.5994
       2477.7512
       2517.2273
       2523.1010
       2535.5402
       2572.9319
       2601.0821
       2604.6266
       2620.6405
       2623.5111
       2630.1685
       2617.1096
       2621.4816
       2611.2914
       2634.3792
       2664.0152
       2679.5834
       2682.1522
       2687.4573
       2708.7268
       2707.1886
       2704.6866
       2697.6540
       2674.2511
       2664.7575
       2677.0653
       2690.7991
       2701.1541
       2724.4368
       2714.5795
       2697.8217
       2684.8268
       2672.5533
       2709.4427
       2724.9053
       2710.8490
       2700.2091
       2695.0761
       2691.5487
       2703.7470
       2723.4617
       2709.1402
       2679.5000
       2685.1835
       2725.5174
       2754.0782
       2778.6149
       2789.2185
       2792.1627
       2803.2278
       2801.9136
       2801.4656
       2805.3172
       2810.1918
       2796.6180
       2800.0074
       2832.1485
       2828.2969
       2824.6864
       2818.7117
       2813.4022
       2822.6162
       2791.9610
       2772.4236
       2766.7047
       2789.7497
       2817.4526
       2809.4428
       2790.0764
       2779.4233
       2750.6457
       2741.5246
       2759.1088
       2792.1878
       2815.4977
       2836.9449
       2836.3286
       2815.9726
       2814.5112
       2796.8571
       2774.2067
       2783.9741
       2790.6937
       2802.9583
       2815.4971
       2820.3818
       2830.9716
       2831.3570
       2816.5802
       2796.1649
       2791.4102
       2777.4535
       2773.4610
       2788.0892
       2813.6765
       2845.5033
       2844.4228
       2843.8417
       2848.5159
       2852.6208
       2837.0323
       2838.3495
       2832.7783
       2836.8697
       2836.5439
       2819.5317
       2795.5306
       2777.2315
       2787.4774
       2776.4799
       2762.7537
       2787.0550
       2788.2106
       2774.2185
       2760.3282
       2774.5175
       2786.1952
       2792.8166
       2788.2523
       2783.5965
       2797.3697
       2823.5491
       2823.2302
       2808.8178
       2785.4024
       2787.4106
       2789.5260
       2791.0182
       2790.0419
       2797.7475
       2804.8288
       2814.1545
       2789.1002
       2754.6213
       2789.0050
       2795.7205
       2795.5661
       2804.6196
       2778.7767
       2772.3586
       2805.3692
       2820.3906
       2804.3169
       2800.1210
       2814.0640
       2818.0299
       2822.2797
       2808.7340
       2809.1444
       2821.8819
       2806.8214
       2780.8293
       2745.9251
       2696.2633
       2683.1631
       2733.1442
       2780.6583
       2826.4450
       2840.5947
       2844.5321
       2839.0840
       2835.3629
       2837.0966
       2825.6929
       2824.3558
       2830.0660
       2828.1116
       2833.5818
       2838.2937
       2827.2415
       2821.0927
       2830.6739
       2830.3818
       2836.1851
       2837.2872
       2830.0314
       2814.9804
       2782.1118
       2760.9365
       2763.8824
       2723.8784
       2661.3689
       2584.3766
       2504.5032
       2396.4064
       2301.6883
       2394.6146
       2587.3063
       2699.3411
       2749.1285
       2785.7625
       2807.1292
       2828.8176
       2847.4725
       2846.3667
       2847.8350
       2848.6039
       2845.5474
       2839.9800
       2814.8597
       2818.8884
       2857.7555
       2866.7699
       2876.8836
       2876.2510
       2872.9208
       2881.4022
       2880.2967
       2898.5597
       2903.5481
       2920.8696
       2913.9148
       2915.8596
       2905.7927
       2889.4146
       2885.3537
       2879.1909
       2875.9255
       2858.0510
       2866.9787
       2889.0349
       2907.9415
       2908.7793
       2904.7988
       2923.1029
       2929.0867
       2928.9245
       2929.4340
       2920.6214
       2917.2230
       2917.8702
       2911.1590
       2890.7699
       2902.3117
       2912.8681
       2922.1652
       2924.8706
       2923.8089
       2908.1531
       2892.6401
       2933.4146
       2949.8748
       2944.0883
       2945.3007
       2943.2920
       2934.7780
       2917.9936
       2902.8797
       2904.8786
       2915.2603
       2909.1439
       2899.1440
       2907.7793
       2908.0458
       2909.0573
       2891.4793
       2872.6892
       2865.9766
       2867.0179
       2886.4326
       2895.8104
       2908.7758
       2911.1256
       2912.4557
       2915.6062
       2913.9482
       2904.0069
       2897.0303
       2901.8518
       2885.0992
       2887.4538
       2890.3850
       2867.8997
       2868.3957
       2881.8056
       2880.8114
       2879.3715
       2886.9738
       2884.8475
       2877.7311
       2867.5980
       2866.5568
       2869.8585
       2868.8840
       2861.5460
       2864.1840
       2876.4379
       2870.6586
       2861.6904
       2869.5139
       2854.4332
       2862.3620
       2870.3711
       2855.5072
       2847.5177
       2844.0270
       2839.9756
       2842.3220
       2835.6802
       2830.4096
       2829.8209
       2825.7638
       2831.9412
       2842.3846
       2834.9793
       2828.6051
       2815.4731
       2808.9986
       2809.2606
       2804.0814
       2799.6938
       2799.3499
       2786.5923
       2768.0417
       2765.8758
       2734.8548
       2726.5876
       2754.1495
       2777.5012
       2770.8253
       2759.5646
       2740.9259
       2725.2678
       2724.3610
       2722.4640
       2740.1727
       2753.1050
       2768.4370
       2776.5133
       2764.8656
       2753.7368
       2755.0219
       2750.8000
       2745.7189
       2734.3077
       2732.9443
       2742.2425
       2745.6487
       2761.8743
       2757.8433
       2749.1375
       2745.3977
       2750.5592
       2750.9324
       2736.5592
       2726.1866
       2735.8701
       2728.6591
       2720.2034
       2708.0559
       2696.3433
       2697.1734
       2705.9380
       2714.9210
       2708.6245
       2708.1385
       2717.6397
       2726.9539
       2730.1241
       2725.1945
       2732.0608
       2729.6647
       2716.0856
       2717.8179
       2715.9875
       2703.5768
       2709.4560
       2714.6397
       2714.4187
       2711.4436
       2715.3468
       2729.0876
       2724.7327
       2729.8270
       2716.7987
       2713.1569
       2713.9393
       2689.7002
       2675.6202
       2670.1416
       2650.6021
       2682.1736
       2719.1369
       2721.1105
       2727.6247
       2733.1082
       2727.8814
       2730.9499
       2726.4542
       2705.0015
       2689.7817
       2678.4980
       2673.7573
       2667.9621
       2687.0682
       2698.6946
       2685.1491
       2677.9004
       2665.7745
       2677.6731
       2695.5581
       2694.7889
       2688.7384
       2717.6332
       2707.2689
       2715.3578
       2704.4822
       2702.9169
       2717.5578
       2723.7573
       2741.6274
       2754.0376
       2737.5732
       2748.1636
       2747.4676
       2722.5284
       2727.1289
       2731.3432
       2728.1468
       2731.3964
       2721.6712
       2729.7665
       2721.7214
       2722.6945
       2738.7774
       2747.1167
       2751.4359
       2744.5137
       2725.3109
       2725.6275
       2701.5923
       2690.6836
       2714.3783
       2725.4018
       2704.5627
       2724.3016
       2732.5358
       2737.7444
       2745.3300
       2751.0515
       2742.6810
       2724.8812
       2715.4479
       2696.3459
       2698.2573
       2698.6785
       2710.1248
       2710.7485
       2692.1153
       2691.8996
       2702.9932
       2690.2129
       2687.5065
       2687.9709
       2706.9827
       2702.7960
       2696.6639
       2686.1653
       2670.0307
       2659.6372
       2638.8547
       2630.7360
       2664.8991
       2679.3970
       2666.2048
       2655.1417
       2650.3523
       2626.1246
       2595.0115
       2596.5392
       2633.6848
       2646.7558
       2637.6161
       2610.1962
       2590.8080
       2566.4465
       2553.0637
       2537.0090
       2524.8625
       2503.5539
       2494.0876
       2510.4830
       2499.8760
       2504.2104
       2505.1227
       2499.4868
       2477.4606
       2464.4767
       2444.2644
       2439.6074
       2449.2595
       2468.2120
       2449.6643
       2437.2041
       2426.2199
       2413.6777
       2411.9279
       2399.8063
       2413.3728
       2412.1770
       2419.3079
       2424.6969
       2409.2031
       2404.0160
       2402.1230
       2395.3741
       2397.7718
       2380.1920
       2388.3490
       2378.6172
       2371.4388
       2377.1803
       2383.5219
       2372.8772
       2355.2095
       2349.5785
       2363.5311
       2366.4006
       2363.2569
       2363.3427
       2348.3841
       2345.5158
       2337.9942
       2344.5099
       2311.1968
       2304.3003
       2304.6806
       2294.8586
       2272.4598
       2289.1597
       2317.1633
       2335.1110
       2340.4097
       2340.5677
       2317.7904
       2309.3572
       2290.3407
       2286.5245
       2282.8267
       2306.9824
       2309.2269
       2303.8736
       2288.7328
       2268.4213
       2256.0113
       2227.1923
       2237.4229
       2224.5929
       2216.4284
       2198.7289
       2251.8778
       2284.4133
       2272.3870
       2258.6445
       2224.6441
       2211.1348
       2237.7165
       2251.3534
       2242.5822
       2244.0763
       2241.5402
       2244.1053
       2247.8627
       2229.6008
       2245.0868
       2257.4519
       2247.4652
       2244.1281
       2244.7068
       2223.2492
       2237.7023
       2227.5536
       2209.0799
       2190.5565
       2148.3565
       2140.0934
       2156.0960
       2177.9526
       2189.5423
       2193.9483
       2177.6160
       2158.7954
       2164.8332
       2165.4893
       2140.7491
       2115.3046
       2102.0923
       2115.1667
       2115.4978
       2113.8644
       2123.5845
       2110.4432
       2120.1782
       2163.9037
       2184.3527
       2179.5109
       2187.0079
       2207.9455
       2210.3446
       2198.4175
       2186.9128
       2159.9149
       2144.2568
       2135.7981
       2162.5632
       2180.4488
       2180.1449
       2187.2015
       2166.7450
       2156.0873
       2128.4589
       2130.1616
       2150.2194
       2164.6361
       2169.0109
       2151.8403
       2150.1862
       2141.7375
       2146.8776
       2152.2475
       2156.1902
       2147.1395
       2166.9003
       2168.1722
       2153.1671
       2125.6971
       2104.1197
       2115.2960
       2140.4143
       2144.7123
       2153.3352
       2132.8336
       2115.1436
       2095.8716
       2084.6812
       2111.7157
       2133.0210
       2144.8858
       2136.0208
       2108.7769
       2099.1726
       2110.0649
       2136.5344
       2123.1489
       2116.0106
       2136.2772
       2155.5565
       2160.8341
       2157.1127
       2146.7230
       2148.1047
       2140.9387
       2146.3736
       2159.2036
       2154.9768
       2129.3650
       2131.4168
       2142.5690
       2151.0987
       2146.2526
       2152.3212
       2135.9434
       2126.4734
       2132.0686
       2119.5290
       2140.2821
       2148.0241
       2145.4161
       2129.4339
       2090.8589
       2075.9487
       2104.3193
       2150.2896
       2156.4341
       2161.7928
       2162.8180
       2143.5354
       2137.2013
       2137.2642
       2133.9591
       2144.4813
       2143.1310
       2146.2485
       2148.5863
       2145.7644
       2099.8204
       2078.6402
       2105.6242
       2135.5980
       2134.6457
       2138.4282
       2149.5707
       2151.5893
       2143.0137
       2147.3004
       2147.3915
       2147.0987
       2148.3547
       2157.4360
       2167.5258
       2156.0695
       2155.1846
       2139.2536
       2124.7740
       2095.5776
       2052.5416
       2046.8600
       2065.9214
       2020.8441
       2059.4155
       2116.1158
       2125.8362
       2146.1064
       2150.5119
       2148.8081
       2142.0013
       2114.0780
       2135.3964
       2139.7560
       2141.2035
       2116.5684
       2087.8169
       2108.1464
       2127.0305
       2088.1631
       2070.3606
       2117.5948
       2133.3669
       2137.2133
       2139.8890
       2100.9417
       2078.5822
       2060.5783
       2070.8347
       2103.2883
       2091.1144
       2091.2643
       2088.4792
       2081.7117
       2080.5485
       2100.1545
       2102.3376
       2110.3322
       2113.1409
       2114.8275
       2097.7550
       2055.5789
       2072.7029
       2048.7860
       2029.0786
       2049.4093
       2079.0570
       2091.7844
       2092.5128
       2081.5646
       2071.6242
       2082.8863
       2078.1845
       2073.2634
       2056.5509
       2043.2670
       2031.5868
       2020.1831
       2044.1700
       2027.4599
       2029.0200
       2061.6432
       2063.1331
       2044.8851
       2033.0721
       2060.1620
       2057.6581
       2038.3015
       2000.9722
       1999.3424
       2019.9613
       2026.8744
       2015.6589
       1996.4942
       1990.5664
       1991.4925
       2017.3139
       2010.9036
       2010.6250
       2009.6383
       2011.7523
       1999.9065
       1992.3268
       1988.8064
       1952.2234
       1926.7523
       1934.0692
       1954.5627
       1970.9039
       1973.4793
       1960.5962
       1955.9566
       1945.3383
       1926.3943
       1930.4881
       1931.9055
       1915.8897
       1927.4471
       1922.6461
       1908.5296
       1907.3126
       1905.6757
       1888.5651
       1874.7411
       1877.3330
       1869.4671
       1855.1675
       1837.5075
       1839.5843
       1828.3531
       1836.1682
       1832.7892
       1824.5821
       1807.0757
       1812.4228
       1789.7870
       1792.7521
       1787.4406
       1783.4097
       1786.7877
       1789.9748
       1787.1021
       1786.2899
       1769.3124
       1754.2315
       1761.0073
       1748.5613
       1742.9310
       1768.5827
       1754.9856
       1754.7328
       1749.0667
       1743.6206
       1707.9796
       1703.0948
       1714.0015
       1689.9409
       1699.8634
       1702.0100
       1684.1447
       1656.3513
       1679.2809
       1691.1352
       1690.9004
       1681.9462
       1675.8060
       1687.8175
       1670.7736
       1661.7669
       1668.9714
       1671.3836
       1666.1972
       1658.9279
       1659.4674
       1659.3485
       1656.2643
       1648.1569
       1650.1484
       1650.2745
       1655.1736
       1647.9322
       1641.0469
       1648.2038
       1628.4368
       1612.2003
       1595.4623
       1579.9288
       1588.7660
       1597.8259
       1610.0450
       1616.2674
       1596.9805
       1607.8233
       1604.3411
       1605.7657
       1602.2194
       1602.6124
       1593.7120
       1599.6668
       1584.4326
       1568.7897
       1562.6208
       1578.1624
       1583.0851
       1572.8741
       1582.6229
       1573.9543
       1575.8083
       1563.1808
       1522.4806
       1516.5469
       1529.6305
       1545.2884
       1535.4138
       1537.7438
       1537.2221
       1545.4312
       1543.7667
       1544.5108
       1545.4227
       1537.3596
       1525.7754
       1515.3227
       1509.5299
       1530.8842
       1525.4494
       1521.4055
       1518.1871
       1501.9550
       1500.3660
       1518.3517
       1512.3999
       1494.7306
       1487.4458
       1483.9298
       1468.2836
       1474.5139
       1489.9261
       1485.5216
       1479.7954
       1479.8055
       1470.0678
       1476.0611
       1474.9646
       1473.3306
       1478.0551
       1467.6235
       1478.1392
       1466.5740
       1475.4872
       1475.3981
       1487.6797
       1472.3491
       1472.8407
       1471.4027
       1482.5639
       1465.6312
       1464.2428
       1465.4908
       1468.0312
       1463.2199
       1462.8382
       1468.2551
       1457.5196
       1455.3568
       1456.2484
       1452.3565
       1452.5118
       1446.1537
       1441.6164
       1437.1242
       1437.3699
       1436.6062
       1437.8467
       1433.4262
       1440.3281
       1413.7724
       1397.7203
       1406.9551
       1415.4731
       1429.6188
       1428.2007
       1399.6089
       1388.2241
       1393.6772
       1414.6697
       1427.2825
       1430.2581
       1427.1085
       1427.6637
       1432.4674
       1412.6610
       1403.5886
       1410.7901
       1407.1928
       1396.2633
       1398.2933
       1416.2359
       1427.8348
       1425.0750
       1408.8417
       1420.4839
       1412.7661
       1420.9083
       1410.3393
       1390.5230
       1410.4426
       1413.4911
       1400.8798
       1394.6618
       1406.9989
       1419.1122
       1420.9453
       1425.3898
       1419.4766
       1425.6465
       1434.2493
       1432.1189
       1431.4361
       1429.3645
       1434.4542
       1434.6718
       1431.9513
       1426.8398
       1431.3286
       1427.0575
       1431.6694
       1431.3297
       1425.3754
       1423.0991
       1418.1498
       1415.3072
       1410.9010
       1409.9431
       1413.7271
       1412.5815
       1417.1109
       1402.1549
       1401.7587
       1400.0828
       1396.7684
       1403.4400
       1403.7258
       1411.1900
       1400.6904
       1397.3732
       1400.8913
       1387.8346
       1375.2099
       1373.5389
       1361.0858
       1356.5373
       1364.3277
       1357.1080
       1361.5295
       1375.0093
       1372.5859
       1364.8143
       1356.7070
       1374.5092
       1371.0393
       1378.6733
       1377.4800
       1374.5086
       1368.3877
       1358.6716
       1364.4679
       1346.0366
       1351.9531
       1361.8803
       1361.4883
       1356.0136
       1362.6248
       1348.4624
       1343.3181
       1333.2867
       1337.0397
       1323.9424
       1305.0660
       1297.3960
       1303.2439
       1311.3137
       1312.0617
       1305.7058
       1301.6773
       1295.5277
       1286.2546
       1290.5874
       1283.0826
       1283.9014
       1265.6366
       1257.6739
       1252.4753
       1246.0596
       1244.4418
       1238.1783
       1217.2197
       1208.3952
       1215.7400
       1213.2633
       1207.5540
       1185.8211
       1172.5015
       1164.8626
       1159.0936
       1145.1051
       1140.4961
       1120.9442
       1113.8417
       1108.0499
       1101.6627
       1092.5294
       1067.9624
       1053.6826
       1042.0643
       1034.2995
       1008.9724
       982.73408
       963.50005
       944.49538
       926.49815
       903.08691
       889.85731
       872.48477
       846.29656
       820.06573
       805.45503
       777.26276
       760.23806
       739.04770
       709.44255
       685.43226
       654.23267
       612.21964
       586.40404
       569.19789
       555.59544
       547.99246
       535.58418
       519.77619
       503.57631
       491.16672
       473.36266
       460.15958
       447.18248
       445.17046
       432.56755
       426.97408
       419.55849
       410.57772
       409.80139
       409.57883
       403.78690
       403.17419
       397.18044
       396.58834
       395.61967
       401.44271
       406.43073
       408.59815
       407.20801
       409.40269
       408.60158
       409.82102
       411.79020
       409.40364
       411.61420
       411.79106
       410.18829
       408.96403
       405.39786
       406.57578
       401.72721
       396.58531
       397.57644
       393.54005
       390.21052
       392.57932
       387.50736
       381.35545
       380.78515
       379.16016
       376.38639
       375.94160
       370.95906
       371.23733
       373.78690
       371.19235
       372.42282
       372.98753
       370.50911
       365.59515
       368.62802
       369.01957
       370.20802
       370.21609
       371.18446
       370.47903
       375.15838
       368.92761
       367.95946
       367.29847
       373.39999
       369.58435
       370.79135
       369.37224
       369.02407
       371.05108
       372.37668
       370.62953
       372.98027
       370.59525
       372.02911
       372.59030
       372.02387
       373.59979
       373.24436
       376.50522
       379.37985
       377.23527
       381.11762
       383.97254
       381.65610
       386.07191
       386.59712
       386.19128
       386.88860
       390.66776
       390.73096
       388.23268
       391.68126
       392.97661
       392.79655
       400.16461
       393.90774
       394.67703
       397.90433
       399.32768
       395.56241
       396.62827
       397.44829
       398.83402
       398.48005
       395.30671
       401.25849
       399.75842
       400.38303
       405.73908
       400.34758
       402.28468
       404.21644
       404.25436
       407.63639
       413.63349
       412.36103
       418.44071
       416.85848
       421.01219
       425.89640
       426.89687
       431.05369
       437.82399
       441.75651
       445.61928
       451.16820
       455.35448
       465.34986
       470.76566
       473.80372
       479.94675
       487.13980
       488.87136
       497.99647
       506.69178
       516.91895
       521.25690
       527.23032
       532.90477
       544.00722
       543.90505
       548.49331
       555.54505
       562.07731
       567.59169
       575.42274
       577.10078
       579.35289
       581.79656
       580.55129
       583.31752
       597.36504
       605.00379
       610.72725
       610.79103
       613.52651
       626.22026
       628.81143
       628.10869
       631.47705
       632.56763
       638.31350
       647.15980
       645.61551
       645.78130
       642.16475
       650.07648
       656.28811
       654.58425
       655.39973
       657.02958
       665.03252
       660.37566
       659.37718
       665.68329
       670.78786
       662.30302
       661.35217
       662.75225
       651.86119
       652.72229
       659.08798
       657.47408
       658.56485
       653.08176
       654.54017
       657.20880
       658.27693
       652.10377
       657.49199
       654.37620
       647.41577
       647.79365
       647.08631
       645.42081
       646.11823
       642.61547
       637.32913
       638.58085
       635.27322
       626.84973
       625.96566
       614.04181
       613.44636
       609.37672
       602.91553
       599.29902
       590.70185
       585.48946
       580.87211
       572.76536
       568.44147
       563.73921
       560.19989
       553.48667
       547.54791
       544.22263
       534.67397
       530.08464
       526.33902
       521.59434
       511.87165
       505.33960
       505.91129
       496.39232
       493.13091
       485.65507
       480.14063
       476.79535
       468.05822
       465.48132
       457.61598
       454.14262
       447.02902
       440.52065
       435.36305
       430.74493
       428.05344
       422.45554
       416.51466
       414.52987
       410.46317
       406.42124
       402.36868
       400.37906
       397.05934
       392.88809
       389.68289
       386.72965
       386.33256
       382.16533
       381.23165
       381.65326
       379.12600
       378.57308
       375.14131
       374.51982
       378.16393
       372.31440
       372.18692
       374.52616
       372.44691
       373.39897
       370.39729
       372.05318
       371.78932
       370.90094
       368.74515
       373.94578
       370.29689
       370.78063
       370.74248
       371.77979
       368.64017
       370.27774
       367.70087
       367.79999
       367.79999
       367.79999
      339.200
      340.400
      339.200
      339.000
      339.400
      339.000
      339.400
      338.400
      339.600
      338.600
      340.600
      338.200
      339.800
      338.600
      337.400
      339.400
      337.000
      338.600
      339.400
      339.200
      338.800
      339.200
      338.400
      338.600
      338.200
      339.000
      339.200
      338.000
      337.400
      338.600
      338.600
      337.600
      337.400
      337.800
      339.400
      338.400
      337.000
      337.600
      337.800
      337.800
      338.000
      338.000
      337.800
      339.000
      338.000
      339.000
      339.000
      337.800
      337.400
      341.400
      362.600
      365.200
      366.000
      365.800
      366.800
      368.200
      365.600
      365.800
      366.400
      366.800
      365.800
      365.800
      366.000
      367.400
      365.200
      366.000
      365.200
      366.400
      365.800
      367.400
      365.400
      365.400
      365.400
      365.400
      365.800
      367.000
      364.800
      366.000
      367.000
      365.800
      366.200
      365.800
      364.800
      363.600
      365.600
      366.000
      366.000
      366.200
      364.800
      365.000
      365.800
      365.200
      366.000
      364.600
      366.400
      364.600
      365.000
      365.400
      365.400
      365.600
       382.65021
       383.31036
       386.17867
       384.20685
       385.14125
       383.48014
       386.32182
       384.27479
       385.10890
       387.44940
       382.67468
       386.36050
       382.53705
       381.53824
       384.24094
       384.91028
       386.01789
       384.87095
       382.54461
       381.53895
       385.76167
       386.88281
       386.49003
       386.35443
       386.95480
       385.07639
       382.42388
       383.85826
       383.99641
       384.72618
       384.16306
       386.25840
       390.39909
       387.78765
       386.67323
       388.45283
       390.41653
       383.15249
       385.62319
       388.91230
       387.50415
       387.34951
       390.22030
       390.73282
       387.83268
       391.45494
       393.57707
       394.60325
       396.98696
       396.36968
       399.17138
       401.66211
       399.33757
       402.75443
       398.15021
       398.21501
       402.38162
       403.90239
       403.95226
       401.07844
       399.97074
       403.04188
       395.16416
       399.36729
       397.27001
       402.72210
       405.76875
       409.43131
       406.94437
       400.54539
       401.54376
       399.35868
       399.08386
       400.87801
       398.61238
       398.72731
       397.38328
       400.74781
       401.78390
       400.15220
       396.78001
       393.71254
       395.09217
       393.99469
       396.51064
       396.55457
       400.10248
       406.01572
       405.53240
       408.93330
       409.18060
       407.34230
       408.87722
       408.59154
       408.19195
       406.87969
       406.78036
       409.51235
       409.97203
       408.85940
       410.46823
       405.13859
       406.37583
       406.05658
       403.35195
       401.37323
       400.52101
       397.37612
       400.20345
       400.10602
       398.89499
       402.52057
       405.99946
       413.36501
       413.94031
       417.89051
       413.88053
       413.39349
       413.95621
       410.93685
       407.30426
       405.70989
       403.43182
       404.09129
       410.15299
       410.93918
       411.25499
       412.37055
       407.78769
       408.24887
       405.36035
       402.92840
       409.00541
       410.03377
       414.26224
       414.70461
       411.62451
       409.52810
       408.87134
       403.59509
       404.68959
       407.14923
       410.48222
       409.82006
       405.10248
       408.06629
       408.84053
       412.08511
       418.71634
       420.92242
       420.41139
       427.12570
       424.66190
       421.51777
       419.25103
       421.59750
       423.18996
       421.59967
       419.33083
       418.43069
       422.92223
       427.36243
       429.09916
       428.04250
       424.41866
       423.69852
       422.38270
       421.41386
       421.18273
       426.04804
       431.93052
       430.55155
       426.15031
       419.60778
       416.76706
       418.69667
       423.36738
       420.72678
       419.91779
       418.39360
       417.34288
       418.68534
       422.63014
       427.80175
       431.30850
       434.71258
       432.91233
       434.93756
       434.01279
       437.44390
       432.84565
       433.26527
       436.52642
       438.64426
       438.44706
       438.33775
       438.59192
       435.01680
       435.28151
       437.78276
       436.66766
       442.18768
       446.00494
       434.40443
       436.00495
       438.84968
       437.55786
       433.01788
       433.04002
       432.87291
       432.49958
       426.32074
       420.05266
       422.50930
       428.09507
       427.14870
       429.01665
       428.71317
       432.44711
       431.43450
       435.10339
       425.52854
       425.42503
       422.40174
       421.72613
       422.22407
       418.34799
       414.58053
       408.85615
       407.79692
       408.39546
       405.87160
       404.02183
       400.10966
       397.65955
       398.37379
       399.58450
       396.01790
       394.08940
       394.20602
       393.72299
       394.73759
       395.85705
       398.82365
       402.93662
       406.28333
       407.32029
       410.74149
       413.36896
       418.07917
       422.24279
       425.13668
       425.60363
       427.08727
       429.73059
       432.27773
       432.41639
       431.73489
       433.95001
       432.91142
       431.17374
       426.66538
       430.34531
       435.00157
       442.23708
       446.92391
       449.59788
       451.26940
       446.70765
       446.92504
       444.72272
       447.02311
       450.30108
       456.39006
       459.69165
       459.56354
       459.94129
       458.75662
       457.55219
       455.43106
       448.28190
       450.77671
       459.61596
       465.05101
       464.55727
       460.42323
       458.59287
       458.51273
       453.88733
       454.69497
       460.68350
       462.53922
       465.33520
       464.59457
       464.13837
       461.36748
       456.70098
       450.87395
       440.40616
       434.29462
       433.85605
       435.30583
       436.17040
       434.21318
       432.92513
       430.99153
       428.19611
       425.10939
       417.00393
       414.52955
       412.60146
       408.12570
       406.42794
       402.45568
       401.70741
       404.36316
       408.78694
       413.36213
       418.11143
       419.60492
       425.02391
       430.52613
       432.52220
       437.75033
       440.21401
       444.08372
       447.22402
       452.16607
       456.75060
       462.72865
       464.50841
       466.06287
       468.66704
       473.98424
       477.78218
       481.64107
       483.39771
       488.90604
       491.37280
       496.40706
       498.23422
       495.62071
       492.41547
       488.69769
       488.20808
       488.54165
       491.08663
       491.91577
       491.67745
       498.65430
       496.33571
       494.94317
       493.04771
       493.72070
       496.39161
       504.79052
       515.08670
       513.96717
       506.89743
       508.51156
       500.27278
       507.29576
       511.76961
       513.32754
       514.69921
       513.84053
       518.26674
       518.46747
       520.98743
       513.29889
       510.55178
       509.87045
       509.27440
       512.90921
       511.38674
       507.39747
       504.06792
       505.50789
       509.47858
       517.65469
       521.65858
       529.86919
       532.46688
       528.57774
       524.05711
       523.72082
       528.26890
       529.41949
       533.26421
       538.04755
       530.87513
       521.25925
       506.73524
       497.48321
       495.11402
       497.88920
       511.66420
       516.82879
       528.71540
       531.04118
       534.44384
       530.56210
       530.29176
       532.25957
       531.25745
       533.98544
       534.10018
       532.87607
       535.06827
       536.51511
       539.99534
       541.61463
       532.03814
       532.49482
       538.06186
       541.54979
       543.09102
       538.74790
       534.38651
       526.88084
       525.14971
       528.28136
       536.34217
       541.66893
       548.34625
       546.23087
       540.95056
       537.33752
       538.44035
       539.08379
       539.24765
       540.38083
       543.44533
       544.98303
       540.61375
       535.60817
       535.74163
       536.46496
       541.91417
       549.89890
       550.05999
       552.93703
       552.13251
       552.33705
       551.68144
       550.83912
       540.87539
       533.91109
       516.96548
       509.89652
       516.29194
       522.20850
       521.72476
       518.20183
       514.93927
       515.81648
       523.95330
       523.14809
       527.24718
       536.26932
       539.58670
       539.03468
       551.67457
       559.70980
       560.78324
       559.26039
       554.54627
       552.50689
       550.47516
       544.67996
       539.13985
       538.31818
       542.75265
       548.14458
       551.60448
       557.76739
       556.98873
       541.08334
       524.34430
       512.73267
       497.71045
       487.20380
       479.70741
       490.72125
       518.23074
       539.42407
       546.29556
       549.20734
       549.33684
       544.99718
       547.78750
       553.40615
       558.11369
       561.27915
       555.21433
       546.13947
       543.76056
       537.44840
       540.88801
       543.88105
       541.25421
       536.80522
       533.52043
       534.59170
       543.94321
       540.23367
       538.52694
       532.73587
       521.89782
       523.85326
       528.78626
       535.67045
       543.25765
       549.08304
       556.06622
       557.71560
       549.36390
       541.83394
       533.04640
       518.54914
       507.46438
       494.40839
       497.76352
       521.89556
       541.20367
       547.07920
       545.37928
       534.44538
       528.01809
       531.31631
       536.36887
       544.25088
       554.75896
       564.46099
       563.67113
       560.49854
       552.32711
       534.61974
       518.84774
       510.11906
       515.00019
       533.89710
       555.79835
       563.38353
       562.02031
       554.41791
       550.18875
       546.80450
       544.68055
       533.63374
       526.44765
       523.07823
       523.42679
       523.33692
       533.28042
       543.94292
       547.06786
       549.28604
       558.83989
       568.62378
       568.27384
       572.80730
       574.45136
       566.59592
       557.94785
       550.03656
       546.99735
       546.88716
       546.55939
       549.02565
       558.37217
       563.03986
       566.38123
       570.34799
       575.81417
       581.86493
       579.06717
       582.84208
       580.82216
       579.58068
       576.65617
       573.38592
       572.11904
       575.06751
       568.90367
       561.51488
       564.38560
       575.32555
       584.23455
       578.26989
       568.68968
       557.45901
       554.03241
       555.08460
       556.48481
       550.71667
       553.62781
       555.80601
       550.65289
       548.63093
       549.26026
       550.28095
       541.11539
       524.24245
       511.90663
       502.30203
       502.41626
       515.63747
       530.08791
       540.29903
       546.62787
       550.41251
       554.47255
       558.14448
       564.52945
       572.96602
       575.00880
       573.92866
       575.32270
       577.65037
       578.30712
       580.84076
       572.94249
       573.33725
       577.13210
       576.12559
       575.95322
       575.61903
       580.05774
       580.18615
       579.03110
       585.08505
       591.74750
       597.93873
       598.86572
       591.18671
       592.56535
       598.37727
       601.72472
       601.69249
       601.52851
       601.78548
       594.07002
       580.07259
       569.90278
       572.48899
       585.47192
       590.47023
       595.89641
       591.06411
       590.34418
       589.87075
       588.68096
       587.21250
       588.64016
       590.59311
       597.16642
       608.71189
       606.37222
       598.59518
       592.06248
       589.42367
       591.27440
       590.11947
       581.18418
       583.29474
       590.10551
       595.92748
       593.28245
       592.44766
       598.33156
       597.98689
       587.31619
       572.22626
       559.69440
       559.23896
       572.06281
       583.18459
       579.59896
       576.79699
       578.95752
       598.10295
       619.26824
       617.69789
       610.42045
       608.40639
       606.81268
       609.96516
       615.53324
       621.08153
       625.38671
       625.58167
       620.33278
       618.91310
       622.05256
       612.15350
       600.96036
       587.73244
       574.98871
       563.48228
       554.34055
       559.98736
       582.30502
       605.24510
       611.86575
       611.05783
       611.38460
       613.50791
       610.59155
       610.47120
       613.06571
       612.87801
       605.39376
       596.54158
       595.88262
       601.94944
       608.53478
       611.95907
       611.00556
       605.84665
       603.76653
       605.74903
       597.35929
       589.78470
       579.52369
       584.76821
       600.95424
       606.44228
       601.80138
       590.04420
       589.51979
       598.37454
       605.21207
       608.05485
       607.75074
       610.54884
       614.30893
       618.17765
       617.03704
       612.99543
       611.14272
       619.10796
       630.41377
       635.20706
       632.73503
       629.70913
       625.56999
       626.93548
       626.26860
       621.39857
       622.61512
       624.54164
       617.04633
       602.30482
       589.34231
       597.66430
       616.66468
       625.07408
       621.87410
       619.97457
       621.37067
       619.52205
       608.11148
       593.24633
       580.75830
       575.41248
       573.78360
       575.42675
       586.86853
       593.80187
       598.36947
       599.28722
       597.52408
       599.57310
       601.91339
       602.45029
       597.28886
       591.32101
       593.59383
       601.53694
       606.81309
       612.49635
       613.19505
       618.69924
       614.96889
       603.11218
       596.55218
       590.18698
       591.83188
       596.50888
       600.43566
       601.29097
       602.22670
       606.80831
       614.77925
       615.72127
       611.10604
       596.80004
       578.85189
       566.26369
       566.61833
       580.72547
       591.93383
       598.02260
       608.37726
       617.01598
       615.84107
       609.64235
       599.26851
       595.86159
       604.18995
       618.41685
       630.08242
       634.36169
       626.56810
       616.49308
       606.32245
       593.91788
       588.70290
       590.39218
       591.61322
       593.81474
       593.44122
       579.79746
       568.49312
       562.67637
       569.05295
       585.75926
       593.16171
       591.21063
       585.49390
       579.51119
       576.33544
       572.41709
       576.41405
       590.18379
       600.10929
       604.39806
       603.50589
       603.71186
       604.63644
       608.33043
       612.76394
       609.36786
       612.79201
       618.24831
       617.23829
       617.22142
       616.28719
       614.09108
       608.48099
       602.99847
       600.50137
       603.17451
       609.73762
       618.12048
       622.64136
       619.08973
       616.45159
       615.87956
       614.55893
       609.40189
       604.02142
       590.10737
       571.79854
       570.33721
       584.28139
       593.51318
       594.96969
       597.90512
       602.79266
       608.40114
       607.41481
       603.60434
       606.78945
       613.82608
       618.27295
       618.79989
       611.91881
       603.50463
       598.92995
       594.27306
       587.62262
       578.73578
       573.07887
       570.53682
       561.66564
       545.06860
       526.17341
       510.73089
       503.94844
       512.68441
       540.10464
       572.83707
       592.54022
       599.92505
       599.53100
       599.09608
       600.57646
       607.19985
       609.27448
       606.22107
       604.16661
       596.78597
       584.89528
       580.82597
       585.23540
       595.03488
       598.82641
       587.97732
       570.74690
       559.95367
       560.32487
       567.86415
       575.61149
       582.25477
       582.83518
       580.35351
       579.64986
       577.66714
       574.90586
       582.34842
       591.52547
       599.66178
       610.59343
       604.18752
       589.26925
       582.75667
       581.40965
       589.29428
       605.74302
       613.35684
       610.81466
       606.94484
       604.93822
       601.23258
       593.95832
       580.50564
       577.29956
       575.30716
       573.23912
       576.31980
       571.98459
       562.30794
       554.13732
       556.35349
       566.68522
       583.87503
       604.66623
       611.75807
       608.31045
       600.21771
       591.71264
       578.48118
       569.20404
       570.34032
       571.56103
       581.68771
       593.29382
       605.84718
       617.40273
       612.75456
       602.18965
       590.95462
       578.94098
       575.52225
       567.48798
       549.38459
       540.72060
       544.58719
       560.06186
       573.52128
       585.76127
       598.34101
       607.21277
       614.00202
       608.19475
       601.25538
       597.94936
       604.64774
       612.23474
       614.18295
       612.97722
       602.29839
       593.86950
       590.17671
       585.84446
       588.18289
       587.15753
       583.47443
       583.86744
       572.02332
       554.91700
       535.86461
       522.51619
       528.92566
       546.66530
       561.53301
       568.26832
       564.71298
       559.53390
       557.84945
       555.91005
       562.46025
       577.72716
       593.34987
       598.36706
       602.87891
       608.14564
       608.39030
       612.49550
       607.08375
       597.27701
       584.50592
       569.81383
       568.84497
       576.05045
       587.38149
       592.40472
       590.28319
       588.14652
       590.84008
       600.69120
       607.33895
       598.23411
       587.25031
       580.56061
       573.54393
       571.67155
       570.45818
       575.04632
       584.07318
       585.95622
       582.92990
       575.57883
       563.33710
       551.05599
       546.83849
       551.15671
       557.59793
       562.67114
       570.76577
       580.37896
       589.62736
       595.87978
       597.49886
       591.95402
       579.24472
       573.65219
       576.19592
       579.48748
       580.67113
       577.41921
       565.09963
       557.35959
       555.58585
       553.78338
       549.92615
       535.59681
       519.48702
       512.92174
       511.18591
       515.09082
       524.26141
       531.79657
       535.35751
       529.52914
       523.81636
       525.04760
       532.06262
       537.39512
       538.75129
       539.56926
       538.39284
       535.19245
       537.08727
       542.11859
       539.79657
       531.36209
       515.46855
       503.75181
       505.17281
       508.58482
       513.46802
       519.18488
       520.69666
       523.45613
       527.68182
       531.09573
       535.22749
       543.60984
       552.27000
       559.46682
       571.08679
       577.21870
       576.35691
       580.92204
       593.03267
       614.31014
       632.98561
       640.45111
       641.24533
       638.53784
       640.42479
       639.69577
       636.50967
       637.70663
       640.32474
       635.51367
       626.00241
       622.67079
       622.24770
       620.05515
       626.42919
       622.13281
       600.62819
       578.62580
       562.92346
       558.35189
       553.79153
       542.11354
       534.75859
       534.21384
       543.83779
       561.74166
       579.40145
       600.97467
       613.93734
       617.38068
       624.55192
       628.01995
       627.63034
       625.65138
       617.39041
       615.01378
       619.48451
       623.17721
       627.60906
       627.91671
       625.90451
       627.76155
       627.44021
       628.37334
       627.56047
       626.59866
       631.49167
       629.91121
       621.47061
       611.78861
       593.72070
       576.69557
       572.23681
       573.11679
       568.38111
       558.51196
       548.49740
       532.44096
       523.07173
       531.13430
       545.68358
       560.44855
       577.80410
       589.99491
       589.55113
       589.57243
       586.82797
       587.28279
       596.32887
       609.68195
       619.24830
       620.81399
       616.22453
       612.78291
       614.85647
       614.52991
       615.56762
       622.47003
       630.71500
       635.39633
       641.16886
       639.53461
       626.82263
       611.30673
       596.47104
       582.55668
       569.77541
       573.34950
       590.56921
       604.20356
       615.42725
       617.26500
       611.49144
       609.86851
       610.81465
       611.10874
       615.36008
       626.86487
       634.87187
       634.55231
       628.64413
       621.73117
       610.35302
       608.54360
       609.22607
       609.03386
       618.43820
       630.59108
       641.51152
       642.78060
       638.41488
       634.92246
       629.41873
       629.00317
       628.30717
       635.05376
       644.97148
       649.78401
       650.46236
       644.96420
       638.16787
       626.52533
       618.94242
       612.77705
       613.90064
       623.05374
       628.82218
       628.90437
       621.89404
       615.50056
       614.96476
       622.29637
       618.62947
       620.08057
       622.72833
       620.11892
       617.62954
       615.83075
       607.66728
       596.68266
       590.41481
       585.51618
       584.93009
       589.42133
       600.32687
       605.58976
       610.67201
       617.42445
       622.71476
       628.52720
       626.64009
       621.12810
       623.05339
       617.96717
       620.00757
       617.32283
       617.26250
       620.73746
       611.66744
       589.57420
       564.91736
       541.47841
       526.32821
       527.32990
       535.74718
       547.48943
       558.59532
       578.97683
       596.55136
       604.07805
       602.39019
       600.19604
       599.20124
       598.92524
       601.34790
       601.04882
       601.26362
       602.58342
       598.25169
       596.26713
       598.35717
       604.72428
       604.92526
       608.60704
       614.62111
       614.75025
       612.51842
       611.35022
       609.25014
       604.91757
       600.07275
       596.69101
       605.69332
       618.63126
       623.02426
       628.22015
       629.75261
       633.94567
       633.72013
       627.38925
       625.27640
       615.73213
       603.70234
       599.04614
       594.14939
       590.95151
       602.66049
       619.18685
       628.64023
       623.79405
       611.88270
       598.95508
       578.36019
       561.58505
       559.28884
       571.10324
       586.79744
       599.48582
       605.01728
       603.86547
       603.75363
       597.04202
       595.03644
       598.27940
       601.65792
       615.21899
       623.03143
       623.10814
       629.68202
       633.63246
       633.81482
       636.34818
       638.47605
       643.37406
       644.42993
       641.53291
       634.54173
       615.63519
       596.41668
       584.90398
       590.18428
       599.09930
       609.05251
       613.25469
       611.05703
       613.93407
       619.57453
       628.14629
       633.53306
       636.77694
       645.82153
       646.08404
       646.56200
       643.70790
       635.07409
       630.74162
       620.53138
       615.20426
       615.22820
       617.60319
       619.46959
       626.17298
       625.98298
       626.46974
       622.87262
       617.62055
       620.46672
       624.40329
       617.44372
       624.68224
       629.31895
       630.42189
       637.21782
       642.35230
       641.14063
       626.47924
       617.96116
       616.81634
       618.03915
       625.39763
       629.89235
       628.73402
       628.06139
       624.25252
       620.13037
       616.44630
       609.07266
       599.91212
       596.83269
       594.24461
       597.19217
       605.86666
       613.77244
       620.58462
       627.88771
       632.50947
       641.15474
       642.94814
       643.97650
       648.01838
       641.47784
       633.83109
       631.40790
       625.63023
       621.61158
       616.13418
       608.36776
       606.66169
       605.35900
       605.78443
       609.64556
       617.11773
       631.39631
       639.02406
       643.33259
       646.39475
       641.01071
       632.58724
       626.40489
       622.66992
       626.67373
       635.36167
       640.32814
       639.60671
       637.01415
       632.08935
       627.62633
       624.15661
       627.46587
       633.27857
       636.22887
       635.55357
       633.63347
       630.58928
       625.19709
       614.79021
       599.59987
       590.52495
       588.54292
       594.89498
       596.40866
       599.22333
       601.03371
       605.64475
       604.67174
       601.10824
       604.12893
       598.18014
       596.46076
       598.38567
       605.44204
       607.49801
       608.33077
       597.08133
       591.12917
       595.48691
       599.65308
       611.34893
       622.78620
       624.68992
       630.65710
       618.67221
       621.24067
       624.35901
       623.29945
       621.35887
       620.10543
       623.53414
       628.32512
       630.75035
       628.57110
       622.85837
       618.21828
       613.40584
       611.41951
       613.95417
       615.88284
       618.43717
       625.34244
       631.92193
       634.81010
       634.64545
       634.18685
       637.17567
       643.00901
       646.62920
       645.30037
       646.81151
       642.65767
       635.42811
       636.63759
       634.90072
       641.86692
       651.79611
       654.05907
       649.18376
       648.72775
       646.42723
       641.17948
       635.24588
       624.46147
       614.78779
       616.26232
       610.60886
       605.59486
       601.71229
       605.42696
       615.07616
       625.91156
       629.60824
       628.88010
       629.24919
       638.79307
       641.65028
       642.77731
       644.90557
       650.36483
       648.25630
       648.82524
       645.88300
       638.56604
       631.82183
       625.04401
       620.92898
       620.15269
       614.46810
       616.19149
       618.55072
       625.69799
       629.76404
       632.25413
       641.46468
       639.97813
       643.57814
       639.05527
       628.43840
       619.92493
       621.75289
       625.72699
       627.82629
       627.15836
       626.51933
       630.46263
       634.78201
       640.28769
       646.48487
       646.61739
       639.96266
       644.15581
       644.77356
       642.52292
       641.91574
       641.60579
       632.91995
       632.47035
       633.72690
       634.41819
       644.74810
       652.40256
       656.07043
       657.03728
       653.03568
       658.05461
       657.00381
       653.55947
       656.89233
       659.99656
       657.97573
       655.11669
       652.02895
       649.24642
       646.51543
       647.80182
       644.36009
       646.68336
       651.00345
       653.60232
       654.64324
       653.71511
       653.35578
       651.25992
       654.07927
       647.16158
       641.71355
       639.43704
       640.24006
       636.89832
       630.83321
       633.33792
       637.11790
       639.92680
       642.59675
       642.87066
       644.32108
       635.47367
       636.12980
       633.06828
       635.16758
       641.95011
       639.82580
       641.65187
       640.75522
       642.62875
       643.41927
       650.29057
       653.11816
       645.68793
       637.01906
       631.29969
       634.47856
       634.88423
       642.09320
       639.02527
       635.26852
       628.27052
       629.04794
       624.73987
       621.82225
       614.05439
       612.67040
       611.73454
       610.07494
       602.91316
       603.49853
       600.78135
       600.89072
       606.29085
       608.02113
       608.62611
       611.31616
       610.81466
       617.98113
       623.16187
       622.42521
       619.87744
       616.88181
       611.79909
       611.37048
       615.28812
       612.44309
       599.27933
       602.07234
       607.78286
       614.33061
       629.92067
       640.50092
       643.45993
       641.93965
       644.79287
       641.73167
       641.37341
       636.41674
       634.44557
       630.99764
       629.23177
       626.91305
       629.58572
       633.44780
       634.75736
       634.76328
       637.80747
       638.07132
       640.01683
       633.36873
       626.49012
       626.16518
       625.21680
       630.51695
       626.38415
       626.50177
       621.76429
       626.96128
       623.88071
       621.12210
       623.47605
       617.70156
       607.12143
       604.72888
       607.56791
       611.47173
       616.64832
       619.72348
       625.54167
       620.97252
       617.92125
       622.13550
       623.32282
       620.95664
       618.44827
       623.98034
       616.67466
       612.95801
       621.40211
       611.08365
       610.23548
       617.33428
       628.76647
       628.54127
       629.92900
       633.07476
       632.76658
       633.20796
       633.53882
       639.19552
       640.91348
       638.04188
       638.01918
       640.59901
       641.24709
       641.45392
       637.86592
       636.83337
       633.39531
       627.88177
       619.43768
       619.17439
       617.39112
       612.11725
       608.31617
       612.93012
       618.57332
       619.36933
       626.58700
       628.20157
       630.50793
       632.54821
       628.51166
       627.56375
       631.99860
       631.50353
       634.79239
       627.60595
       622.86250
       617.30698
       610.92885
       612.22339
       613.18785
       624.19032
       627.80557
       634.56050
       630.96811
       632.04812
       631.03718
       631.77003
       626.61515
       628.79173
       626.27337
       629.62954
       631.70164
       632.01057
       634.96271
       633.50737
       622.24838
       624.24315
       621.35884
       616.44263
       610.83437
       606.52551
       606.83728
       603.40179
       604.57560
       605.80464
       610.57843
       614.56088
       611.29878
       602.70900
       605.61589
       603.56251
       608.13613
       607.48973
       608.03512
       605.37128
       602.10834
       604.38802
       607.62904
       612.25750
       613.41126
       620.21749
       616.49555
       623.43504
       618.97616
       623.65686
       619.63091
       617.85725
       616.95001
       612.66910
       612.88138
       605.54241
       601.04302
       603.71223
       604.65917
       610.63157
       609.19080
       609.23479
       606.74921
       609.56228
       603.45930
       602.13852
       604.79823
       603.11226
       609.47528
       605.60395
       602.98560
       604.86466
       602.58339
       608.19347
       610.51222
       608.38071
       602.91514
       598.97121
       596.43017
       598.35394
       604.97308
       609.42612
       604.41557
       608.00516
       605.21373
       609.20988
       606.93581
       607.67764
       606.88442
       604.00568
       600.81231
       604.46247
       610.21268
       609.60090
       609.83091
       607.82501
       611.27241
       609.88514
       616.67912
       617.14693
       621.42893
       620.45242
       624.01784
       616.64431
       611.20795
       612.39414
       608.13566
       609.91112
       610.25308
       606.07588
       603.63964
       604.85932
       604.70231
       603.43089
       608.75213
       612.59820
       604.48095
       610.24961
       607.44552
       602.24387
       608.16399
       608.89177
       613.59714
       609.80401
       605.86094
       604.62355
       604.73064
       601.11835
       604.86539
       603.69518
       610.24339
       610.20480
       618.32348
       614.84894
       610.38608
       606.74127
       607.85091
       607.83584
       607.92035
       604.54619
       611.67661
       610.35487
       608.04946
       604.74734
       606.00368
       602.28278
       602.40511
       604.94429
       607.45085
       602.82851
       610.90904
       612.51626
       606.14989
       603.19439
       600.25881
       597.37804
       601.40529
       603.73297
       603.33300
       611.97428
       608.44356
       612.39115
       598.59242
       596.73483
       600.41568
       599.38382
       597.68095
       597.55435
       598.26668
       600.86051
       600.84891
       600.61584
       600.32632
       602.96781
       599.70645
       591.35507
       593.06484
       590.81332
       589.00944
       596.84819
       587.83282
       592.78911
       593.12031
       591.47706
       591.49019
       594.09189
       599.83184
       596.84238
       602.52666
       607.55310
       597.01502
       595.53145
       595.60885
       594.96845
       597.14878
       595.11464
       595.43056
       593.12255
       585.94565
       577.12585
       576.58191
       582.10278
       576.80365
       580.11506
       575.67462
       573.88434
       579.08457
       582.31910
       582.40057
       583.15678
       591.48563
       591.14661
       589.05913
       589.60244
       587.76904
       592.22791
       591.66504
       591.57176
       592.50576
       595.34755
       584.92507
       579.02195
       583.17352
       585.00826
       583.46172
       583.55386
       585.07553
       579.07937
       585.09800
       588.10450
       590.48406
       593.46826
       596.29865
       598.05880
       603.74235
       598.55540
       600.31097
       600.43597
       599.05658
       598.05743
       595.83414
       597.04578
       591.73510
       592.35793
       592.15379
       583.36465
       586.46736
       587.00671
       587.04354
       584.23285
       586.31415
       588.14083
       576.46833
       576.07635
       567.30886
       558.12218
       559.95175
       557.86649
       556.57509
       559.65503
       566.27359
       567.68942
       577.01030
       579.80759
       578.00194
       581.30488
       584.57238
       583.41232
       584.98023
       584.26022
       579.64615
       581.39514
       577.84744
       578.33884
       583.50542
       587.37635
       586.24898
       582.81901
       584.92590
       590.91483
       594.97878
       594.03626
       591.01572
       592.61589
       586.67454
       582.64956
       577.42772
       578.41612
       572.02843
       575.36603
       576.60720
       573.99766
       578.77973
       577.01379
       576.60637
       574.39205
       580.58480
       577.60749
       579.98295
       585.59479
       581.81147
       578.99729
       584.99679
       581.00284
       579.59991
       582.39993
       580.80184
       583.99910
       582.00705
       586.99767
       582.59767
       583.79003
       579.39030
       579.40002
       579.40002
       579.40002
       579.40002
      364.400
      367.600
      365.600
      365.800
      365.800
      365.800
      366.000
      366.800
      364.800
      365.800
      365.600
      365.400
      366.000
      365.000
      365.400
      366.600
      365.400
      366.800
      365.400
      366.000
      366.400
      364.800
      365.400
      366.000
      364.000
      364.400
      365.800
      363.800
      366.400
      365.800
      367.200
      366.400
      364.200
      365.600
      365.600
      366.600
      365.400
      365.200
      365.800
      364.600
      364.600
      366.000
      366.000
      365.400
      365.200
      365.000
      366.400
      364.600
      364.600
      366.800
      348.200
      350.600
      352.800
      351.800
      352.200
      353.200
      353.000
      353.200
      353.400
      351.800
      352.800
      350.800
      353.200
      351.400
      353.400
      351.000
      351.600
      352.000
      352.400
      353.200
      352.800
      352.000
      352.200
      352.600
      351.800
      351.000
      352.200
      353.400
      352.000
      351.600
      351.600
      351.000
      352.800
      351.000
      352.000
      352.200
      351.200
      351.000
      351.200
      351.200
      352.000
      351.600
      349.400
      351.600
      352.200
      352.000
      350.600
      350.800
      352.800
      351.800
       361.52026
       360.53107
       362.87569
       364.15436
       360.81469
       359.61206
       362.85742
       361.83775
       362.06442
       360.41342
       359.45378
       361.81431
       361.54412
       360.65829
       362.26752
       361.05866
       362.97497
       364.16459
       361.51265
       365.98373
       361.95826
       360.41387
       359.24227
       360.33527
       360.99936
       361.51782
       360.28317
       360.02083
       362.44656
       361.87220
       363.27249
       364.04062
       362.00992
       364.93601
       361.35968
       362.20726
       360.91197
       361.85395
       363.09279
       361.36657
       362.27972
       361.26142
       363.00356
       359.86458
       360.14990
       360.52317
       358.33154
       362.02302
       361.13661
       361.10131
       362.59287
       360.21561
       361.17659
       360.85751
       361.19578
       360.99124
       360.46069
       360.14178
       361.13706
       359.07000
       364.11250
       360.85559
       360.70905
       363.15747
       361.79767
       360.57016
       363.52702
       364.25096
       363.68804
       363.66910
       360.24319
       361.24351
       361.86298
       358.97564
       361.96199
       361.00374
       363.18681
       361.24478
       361.09101
       359.64438
       359.66851
       364.77096
       364.53916
       364.89958
       359.98183
       361.91251
       360.27841
       359.55930
       363.97767
       362.15211
       362.79632
       362.15905
       359.76748
       360.21998
       360.14745
       358.99542
       360.99941
       360.45476
       357.89167
       361.26928
       359.36422
       359.71912
       363.01274
       360.65051
       361.67303
       363.30198
       359.96878
       358.71037
       359.56837
       360.83281
       358.57289
       360.61871
       362.08023
       361.78646
       364.68619
       363.13119
       361.87558
       362.20663
       358.19269
       360.74075
       359.89045
       359.05632
       361.60475
       359.85091
       358.77955
       360.52628
       359.16259
       361.77508
       360.31905
       359.49548
       359.55338
       361.27274
       360.97270
       358.38315
       359.91624
       362.67658
       360.67435
       363.22317
       362.20633
       363.30989
       364.26511
       361.27608
       360.21002
       359.37415
       360.41313
       359.10659
       362.96042
       363.64127
       358.60107
       361.10254
       361.31042
       360.92504
       362.29551
       361.53292
       359.58036
       358.09088
       357.55962
       360.08557
       359.34137
       361.45338
       360.76202
       363.23867
       362.25470
       359.55685
       360.43408
       360.04201
       359.27132
       358.87985
       359.67560
       360.41079
       360.29637
       361.51093
       363.51174
       361.03657
       360.49450
       360.55799
       361.32240
       361.48327
       359.86368
       360.19186
       364.89277
       359.11822
       361.13283
       362.25901
       360.29425
       359.80354
       361.18817
       362.05004
       361.25750
       361.25290
       359.92318
       360.25071
       360.04491
       359.34078
       358.13026
       359.45350
       361.76013
       359.06868
       359.23838
       359.98197
       362.06830
       362.08653
       359.83955
       364.46163
       367.18788
       362.25173
       360.35308
       359.85415
       360.90706
       360.81039
       359.61948
       360.50701
       361.25435
       361.19590
       360.32343
       359.10002
       360.02760
       360.26740
       357.65360
       361.99048
       361.47795
       358.54926
       360.99077
       360.50934
       359.09959
       360.12089
       361.32134
       361.15038
       359.78995
       358.87461
       359.58605
       361.51817
       363.71482
       364.68808
       363.42522
       360.76061
       361.38501
       362.74282
       360.45135
       358.84639
       359.42753
       361.63065
       364.35172
       362.32309
       357.04779
       358.64740
       361.49434
       362.38231
       360.82798
       358.39902
       360.97853
       362.14717
       362.54754
       359.27207
       358.79112
       360.74383
       360.11403
       360.55396
       365.59376
       364.26274
       360.33697
       361.46110
       362.28436
       360.28405
       359.28591
       362.21171
       362.09118
       361.30224
       360.05477
       360.71570
       360.85737
       361.30069
       361.22882
       362.21804
       362.46795
       361.06007
       362.14691
       361.11237
       360.74006
       360.75384
       359.69599
       360.08409
       360.58540
       360.10491
       359.37631
       358.54185
       363.28923
       365.83068
       362.73821
       360.00805
       359.44909
       360.69625
       360.20969
       362.02835
       362.47697
       362.03100
       362.90211
       361.29191
       359.19846
       360.07131
       360.95618
       360.68364
       361.27685
       361.18249
       360.43725
       360.60600
       361.86894
       361.50700
       360.68776
       360.13906
       361.10354
       361.44459
       359.34153
       359.35284
       359.71975
       361.64098
       364.57437
       361.65493
       359.93225
       361.84360
       361.80103
       361.34431
       361.41774
       360.36513
       361.82547
       362.22379
       358.79613
       359.70972
       361.33514
       358.87646
       360.78897
       365.66797
       363.47000
       359.75763
       359.50995
       360.55865
       359.75219
       359.96200
       360.70186
       360.91283
       360.66103
       359.49832
       360.97578
       359.57131
       359.87658
       361.57912
       360.95489
       359.08603
       359.59611
       361.15853
       360.52846
       360.72684
       359.85443
       359.51018
       359.70969
       361.46136
       362.36559
       361.18551
       360.58393
       359.08654
       359.67916
       360.85972
       360.76681
       360.27489
       358.23994
       359.35991
       362.24687
       361.91441
       359.74226
       362.90637
       363.77019
       359.58322
       362.35463
       363.98562
       361.50862
       361.02453
       362.04781
       361.56691
       360.37179
       363.12057
       363.84628
       360.78838
       359.89994
       360.36663
       361.88201
       362.77312
       361.49067
       359.55158
       358.77515
       359.98033
       359.41309
       358.70541
       359.52353
       362.06998
       361.58483
       358.51862
       358.95003
       359.47956
       360.18899
       360.35162
       358.98687
       359.41495
       361.59261
       361.39838
       359.35235
       359.26217
       362.29575
       362.06966
       359.97830
       362.16221
       360.77276
       361.42159
       361.34125
       360.25116
       361.87257
       361.84158
       360.77570
       359.53088
       360.72500
       360.84572
       360.56299
       359.82631
       359.25396
       361.16986
       360.89719
       359.59482
       359.16231
       359.83195
       359.29145
       360.47975
       360.70526
       359.45075
       359.69219
       360.70947
       361.19828
       360.61851
       360.67432
       362.81380
       364.03757
       361.17152
       359.73669
       360.50406
       361.01058
       362.73421
       362.00703
       360.59850
       361.15207
       360.99795
       361.68018
       363.13484
       361.84902
       360.18101
       362.53932
       361.79565
       357.65090
       361.79967
       363.33054
       360.93309
       360.48005
       359.48147
       359.20019
       360.94960
       359.13733
       358.08331
       361.80692
       361.37888
       363.78199
       363.96664
       360.15932
       359.86153
       360.67007
       360.03454
       359.38266
       360.75034
       362.34560
       362.11498
       362.90057
       360.46206
       358.93037
       362.64379
       361.39565
       360.71287
       361.90942
       360.76495
       360.74372
       359.05252
       361.49598
       362.29738
       363.36013
       361.88851
       360.76359
       364.24304
       363.73333
       361.16498
       360.64309
       362.85516
       360.63357
       360.88471
       360.94556
       360.83068
       363.02174
       360.36714
       361.00997
       362.59405
       359.80034
       359.39646
       360.28441
       361.49262
       360.72001
       361.81474
       361.22472
       362.96739
       363.12164
       359.26793
       357.72215
       359.81793
       362.84488
       361.06431
       358.64846
       360.06631
       359.96582
       358.08886
       359.30743
       362.01768
       361.07017
       360.42759
       358.50162
       360.46720
       360.68551
       359.98535
       362.75505
       362.76472
       360.26026
       361.61651
       362.98043
       360.43810
       358.14495
       361.36196
       362.32840
       360.02357
       359.47500
       359.69426
       361.22375
       360.87218
       360.82424
       361.37628
       361.11528
       360.77202
       359.17343
       358.98351
       362.90868
       362.15314
       360.71661
       359.25637
       359.97408
       360.80752
       360.87777
       363.37870
       362.37308
       359.31362
       360.37836
       361.40206
       358.93385
       359.90219
       362.33255
       360.32261
       360.06130
       358.88953
       359.43581
       361.69527
       362.16758
       362.61631
       361.24747
       361.83402
       361.45499
       362.41103
       359.98430
       359.65118
       360.38139
       364.21343
       361.78621
       360.21148
       360.07523
       360.12207
       360.28757
       359.67193
       360.30876
       360.51188
       360.46259
       360.69513
       363.79845
       362.25667
       361.98184
       360.72693
       358.91124
       358.10703
       361.23994
       362.45098
       361.46705
       360.89351
       359.05273
       360.81289
       363.76867
       363.02631
       361.96828
       359.27519
       360.57691
       361.16152
       360.70413
       362.11400
       361.40549
       362.70602
       361.21045
       360.45919
       358.59480
       359.41289
       361.07978
       360.00992
       361.23858
       359.98426
       358.76780
       361.26982
       361.99643
       360.22629
       360.73104
       360.09871
       359.81303
       358.78350
       358.91311
       360.25850
       359.98909
       359.12114
       359.20060
       360.89503
       360.53866
       360.59955
       360.53445
       361.72042
       360.29721
       362.23693
       364.54125
       363.31666
       360.09681
       359.94985
       362.71267
       364.25561
       364.84940
       362.62037
       359.25855
       360.06971
       362.47139
       362.01213
       362.74972
       360.31357
       360.45057
       360.38308
       359.45931
       359.81049
       360.50821
       359.82760
       359.50671
       360.21573
       363.22266
       361.63285
       362.38555
       360.01054
       359.88585
       363.26598
       361.71380
       359.44804
       361.81024
       359.95045
       361.49062
       363.29458
       360.51244
       361.57444
       361.75537
       362.10958
       360.83400
       358.81829
       361.77763
       360.24018
       358.66200
       358.64594
       358.04141
       359.58878
       362.50706
       359.97947
       361.22838
       362.86773
       361.77794
       359.35614
       360.33762
       360.32526
       361.72999
       363.67963
       360.66412
       360.27207
       360.63260
       360.95837
       360.70091
       360.43801
       361.20101
       359.45155
       359.96571
       363.87310
       363.98873
       361.44950
       360.77902
       358.32130
       359.64172
       361.59603
       361.60274
       362.04215
       360.34835
       361.55181
       361.50740
       358.88943
       360.82103
       361.45307
       363.16443
       361.76915
       359.35385
       359.37387
       361.41391
       359.80692
       359.17877
       362.35987
       362.15776
       361.70259
       359.16664
       359.49493
       358.64079
       362.71160
       359.94839
       359.79149
       360.88531
       359.89392
       361.72402
       361.63072
       359.19196
       358.61874
       359.97689
       361.80412
       361.87639
       363.09132
       362.95224
       361.96540
       360.09562
       358.98932
       358.90665
       361.05537
       361.09183
       362.15911
       363.96157
       362.83899
       360.67976
       360.05871
       359.17185
       358.70135
       358.99319
       359.93573
       360.12565
       358.43856
       358.30028
       364.70196
       363.20048
       358.18552
       359.94869
       359.95580
       360.29543
       362.12611
       361.82413
       361.22925
       359.73383
       357.61833
       358.55178
       362.08611
       362.99153
       362.12875
       359.32541
       359.77852
       361.09556
       359.80555
       361.99467
       360.39688
       361.37529
       361.78456
       360.59435
       361.93947
       359.84689
       359.56934
       358.83426
       359.40214
       360.00392
       362.28840
       361.97069
       360.45415
       361.23437
       361.39187
       359.68945
       359.39547
       359.51461
       358.89087
       360.99918
       361.25736
       360.68292
       361.45011
       360.73076
       361.07751
       360.97367
       361.30822
       361.87669
       360.97577
       360.44104
       361.59317
       360.32935
       360.99441
       361.29387
       360.82844
       360.56880
       362.86403
       362.86672
       361.36611
       360.42640
       358.06510
       359.06930
       362.39062
       362.52977
       359.69838
       359.39397
       361.51634
       361.48286
       361.98538
       359.61220
       358.54208
       362.14834
       360.86156
       360.56735
       359.90674
       362.60862
       363.73163
       360.20817
       361.41417
       360.03378
       360.80829
       362.64086
       361.51628
       359.21848
       360.97172
       360.91321
       362.51079
       360.50939
       359.88536
       360.81285
       360.02123
       360.57909
       361.26657
       360.45743
       362.25748
       361.24427
       358.27486
       361.67804
       361.42690
       361.88904
       359.50041
       360.34921
       363.78402
       360.96148
       361.50186
       360.40221
       358.57828
       359.53590
       360.27686
       359.58009
       359.87968
       360.68298
       360.72016
       360.27426
       360.44804
       360.84086
       360.09920
       359.68606
       360.24431
       361.76422
       362.50262
       361.65139
       361.66682
       363.38697
       359.85041
       362.01272
       360.49520
       359.66175
       360.53894
       362.33340
       360.49072
       361.66918
       360.59025
       365.38674
       364.09348
       359.95964
       362.39168
       362.32718
       361.22229
       361.30417
       359.93043
       360.72635
       360.77061
       359.63087
       361.02338
       361.44586
       361.06403
       358.84490
       361.95846
       361.97893
       359.69414
       359.81189
       359.34729
       360.19593
       360.30572
       361.10008
       359.05614
       361.64289
       361.89962
       357.27575
       360.22188
       360.84132
       363.84982
       365.78782
       361.93487
       359.76655
       361.67852
       360.90959
       362.96522
       362.74037
       361.00303
       362.85101
       362.02621
       360.05396
       361.66692
       360.76295
       362.62028
       363.96091
       361.75318
       360.42670
       362.02517
       362.83885
       361.32978
       360.06547
       363.78405
       364.69086
       362.38403
       359.67237
       361.47204
       360.96828
       359.25311
       360.17020
       362.35315
       360.90972
       362.16943
       361.53676
       361.74410
       360.81805
       362.94763
       359.74117
       359.53348
       362.91040
       361.67881
       363.79153
       362.37301
       363.68649
       362.74149
       360.81553
       360.16436
       362.83295
       360.85968
       361.97699
       361.95003
       361.00949
       360.59359
       368.47079
       364.91755
       357.09451
       361.32065
       362.09019
       359.15123
       360.01922
       360.44992
       361.03402
       364.21484
       360.98520
       362.32204
       360.54019
       361.47494
       360.85212
       360.12548
       361.50073
       362.86943
       362.51065
       361.66144
       362.10906
       362.84649
       363.42895
       362.50381
       361.09303
       358.74682
       357.97682
       362.68314
       361.51920
       360.44393
       363.48498
       361.53444
       361.89801
       359.29623
       360.08913
       361.54133
       360.14013
       360.53354
       362.95104
       368.31164
       362.39172
       363.14823
       363.49260
       362.71321
       362.86128
       362.27451
       361.45122
       360.41250
       360.22206
       360.95980
       363.17911
       364.36212
       362.81196
       361.66951
       359.54063
       362.86672
       362.30447
       363.10747
       362.30259
       360.75381
       360.59203
       361.85420
       362.24229
       360.79841
       360.53170
       359.85288
       361.42631
       361.55666
       362.63090
       360.45998
       361.43327
       364.26192
       360.12615
       360.27935
       361.60912
       361.49691
       362.87050
       362.54463
       360.36197
       360.99775
       360.95320
       359.53468
       362.65967
       360.40193
       361.14792
       365.59488
       362.27353
       361.32632
       359.69910
       360.86231
       359.72313
       362.33434
       363.06479
       360.10204
       361.42268
       360.17336
       361.05056
       362.52572
       362.05285
       365.37008
       362.37776
       361.90492
       361.33989
       362.07990
       359.48383
       360.98622
       364.00296
       364.41684
       363.58352
       363.66241
       362.23611
       360.56093
       359.15454
       359.69476
       361.48259
       363.28865
       361.91302
       360.18858
       361.93436
       361.08294
       359.71326
       359.37993
       361.40866
       361.42123
       365.93650
       362.10698
       360.31947
       361.05242
       360.40468
       358.37526
       360.35182
       363.18893
       359.90741
       363.18524
       363.32733
       361.13664
       362.15205
       362.46921
       361.10845
       362.61899
       364.87039
       361.76259
       360.27013
       360.01452
       362.64613
       360.85427
       362.61550
       363.47697
       363.18443
       361.33785
       362.61712
       362.43829
       363.63054
       361.05030
       359.54978
       362.85819
       361.87747
       362.55348
       358.06148
       361.20391
       361.26452
       364.07330
       362.83035
       361.32034
       363.54295
       362.61114
       360.11581
       362.66121
       359.53409
       360.55855
       361.83967
       360.70667
       360.25337
       361.50547
       359.40422
       360.18714
       362.43003
       361.22767
       361.38087
       366.39829
       363.54530
       360.16295
       360.30304
       361.05749
       363.31867
       361.28679
       360.67082
       359.32336
       362.19845
       362.65708
       360.25879
       360.06988
       361.26419
       360.33972
       362.48974
       360.38201
       361.63705
       361.43984
       361.39798
       361.43318
       361.79308
       362.58123
       361.71905
       359.71646
       360.16892
       359.09906
       361.87575
       363.90457
       360.83445
       361.07540
       359.35721
       360.21699
       362.26775
       361.19423
       361.33709
       363.53781
       359.91495
       362.05948
       364.00891
       361.03898
       360.34219
       360.46748
       362.13972
       362.25886
       362.03422
       359.39638
       362.20778
       359.56478
       359.98225
       360.78971
       362.11680
       360.96057
       364.03250
       363.57839
       362.15838
       365.22708
       361.16960
       360.13119
       361.66214
       363.07334
       362.07342
       361.34673
       361.72019
       361.53419
       360.80979
       365.71241
       363.58385
       364.00900
       364.89615
       363.21361
       363.07709
       362.78539
       360.67143
       360.44271
       361.83028
       362.80376
       361.70310
       363.94171
       363.11953
       363.87211
       362.55063
       362.91923
       360.04863
       362.41144
       361.58995
       363.04829
       361.56158
       361.09031
       363.38920
       364.57437
       364.82403
       360.86933
       360.33873
       360.68009
       362.49356
       362.71124
       361.63758
       362.88215
       363.88743
       362.93462
       360.37102
       363.41290
       362.97309
       361.92005
       360.28132
       363.47160
       360.79884
       360.69417
       361.91699
       362.01183
       364.21983
       360.73583
       361.15090
       360.65551
       360.57690
       360.60170
       363.27555
       361.38601
       363.82868
       363.46778
       361.05926
       361.87374
       359.41401
       359.30000
       360.25969
       360.95269
       360.27711
       359.65361
       363.18163
       362.56205
       359.71989
       358.62506
       360.26722
       362.72110
       363.61546
       363.49820
       363.04558
       363.22161
       365.89426
       365.05666
       362.53893
       359.07827
       360.22536
       365.34148
       360.65511
       361.18296
       361.36960
       361.54584
       363.72744
       362.42435
       360.03409
       360.63402
       362.63029
       362.99181
       362.06994
       363.27031
       362.56134
       362.97755
       360.58805
       360.09010
       360.59252
       360.14334
       363.75585
       362.56760
       362.96470
       362.76664
       359.83186
       363.44811
       360.84706
       361.01955
       362.06522
       361.69359
       363.54888
       363.10818
       362.01043
       360.99728
       360.73964
       362.55704
       364.69732
       361.07183
       360.91843
       364.39137
       362.32112
       361.92196
       361.37968
       362.05661
       364.37688
       362.78157
       359.47856
       361.51716
       362.43973
       359.90747
       360.37962
       362.04988
       363.30528
       362.67843
       360.77744
       360.19849
       363.00018
       368.07619
       363.04215
       360.70921
       358.59603
       360.63810
       359.83121
       361.45964
       361.98087
       360.40007
       361.14447
       364.18776
       360.75839
       360.76636
       363.02890
       361.91891
       361.31842
       361.47503
       360.48287
       362.09928
       361.27196
       366.79029
       367.03209
       364.73291
       363.77120
       365.14095
       362.10436
       360.52471
       364.17341
       361.81276
       360.33480
       361.33724
       361.85573
       361.23725
       360.67788
       360.08638
       364.04660
       363.40221
       360.85268
       359.42212
       360.60395
       362.28977
       363.18980
       362.35476
       363.49360
       362.69803
       360.00772
       360.48484
       361.59030
       362.54366
       363.16174
       365.17162
       361.30836
       360.39681
       360.46017
       361.08946
       361.97175
       361.39456
       359.52568
       361.72044
       361.10597
       361.16626
       362.68392
       363.21384
       363.34402
       361.62025
       363.93658
       360.78766
       360.81285
       360.74363
       360.05431
       361.86140
       360.39442
       362.26446
       363.58638
       366.26480
       363.48918
       361.20340
       361.72645
       360.53261
       360.82124
       363.75713
       362.47402
       359.97879
       365.05902
       362.40521
       360.39116
       362.62137
       361.32294
       361.84541
       363.29950
       361.03716
       359.29724
       360.87061
       363.37027
       362.07866
       360.66897
       362.61024
       363.20197
       360.59912
       362.62667
       360.21889
       361.86396
       362.23030
       361.39365
       361.65476
       365.87971
       363.33471
       363.41788
       365.61367
       360.99638
       362.03258
       362.01653
       366.20059
       362.17995
       362.60110
       363.76373
       359.32805
       364.23507
       364.02071
       365.30204
       362.96551
       364.65812
       363.37496
       363.33112
       360.66476
       361.70151
       365.86242
       362.64612
       360.20701
       362.12642
       361.65933
       360.86636
       362.25653
       362.14420
       360.84562
       362.33783
       363.79281
       364.72281
       364.08247
       363.96463
       361.86964
       358.91537
       359.77443
       363.20567
       360.69345
       365.24480
       363.22470
       360.15485
       362.06470
       359.45614
       362.05921
       362.31296
       361.94861
       363.49689
       359.47546
       360.18070
       362.53119
       361.03558
       361.80596
       361.05297
       364.26200
       364.04601
       361.19685
       363.76375
       361.32764
       361.97182
       367.39430
       363.31771
       365.85936
       363.71044
       360.44932
       366.05704
       362.45120
       360.80161
       362.56658
       362.10883
       361.81488
       361.07693
       362.27546
       361.43650
       363.09680
       362.13964
       362.30800
       360.26542
       361.48078
       364.68172
       380.63015
       369.65063
       360.56630
       360.53820
       361.44241
       361.45392
       359.90017
       360.14788
       361.95805
       363.05324
       361.77490
       361.60130
       363.94252
       363.49636
       362.88829
       358.01415
       359.53518
       361.80138
       362.89826
       362.21409
       361.08119
       359.74478
       360.58777
       361.12406
       362.32406
       360.05634
       362.46217
       362.31794
       362.33064
       360.94712
       359.67932
       363.43813
       362.95443
       365.76182
       362.94520
       359.57609
       359.99206
       363.02356
       362.69241
       362.04603
       361.13284
       363.73152
       365.03642
       361.67060
       360.94979
       364.80455
       362.53442
       361.11776
       364.58044
       360.78979
       362.12365
       364.73228
       363.90977
       362.24987
       362.26936
       361.98125
       363.49135
       362.38453
       361.45480
       362.73847
       362.18584
       361.27971
       363.19388
       361.91824
       364.46997
       362.94279
       361.94648
       361.01840
       361.48718
       361.98094
       362.08545
       362.87521
       364.43553
       361.62590
       359.85711
       360.94381
       364.24003
       363.43089
       362.75542
       362.60018
       359.33367
       361.20607
       364.50803
       361.61559
       362.62844
       365.03955
       364.22751
       363.70565
       362.47044
       361.02091
       360.49274
       363.55110
       362.58081
       361.03014
       363.42591
       362.89726
       360.69814
       360.95493
       360.87330
       361.47706
       360.50378
       362.60199
       363.74471
       363.13765
       361.32738
       361.67678
       361.98488
       362.84420
       360.21924
       361.03830
       366.71497
       362.83270
       361.73074
       365.68408
       361.42888
       361.47611
       363.39823
       361.96199
       362.73182
       363.43508
       361.30999
       363.29402
       362.89144
       362.57232
       363.25999
       365.57061
       363.36359
       359.72731
       363.14923
       362.48110
       362.93325
       361.35377
       361.67751
       361.22077
       361.65410
       362.66570
       362.72853
       362.30001
       360.09688
       361.94470
       361.62992
       359.52221
       361.31584
       362.00815
       361.49978
       359.38563
       359.98237
       361.93216
       363.80961
       360.95211
       361.72778
       364.36955
       361.47400
       359.74101
       361.87812
       361.59839
       362.97797
       362.39594
       362.19716
       362.93265
       362.32993
       363.09065
       363.34574
       362.89907
       360.81361
       361.12506
       362.62382
       362.18584
       362.63184
       362.21268
       362.19097
       361.37476
       362.01976
       360.85342
       364.14139
       364.86014
       363.61957
       363.12970
       364.08501
       363.08351
       360.01389
       361.15311
       363.81933
       361.99211
       362.53214
       363.09263
       358.93894
       360.97511
       363.09198
       363.81909
       362.41616
       364.16740
       364.39441
       363.00719
       363.20395
       363.58944
       361.82917
       359.69673
       363.13681
       365.90477
       363.46927
       361.81020
       364.07231
       363.65831
       361.15050
       361.53304
       364.87682
       363.80042
       362.06956
       360.61095
       363.14475
       360.17477
       362.77137
       365.83227
       361.82435
       362.47932
       362.65041
       362.70420
       364.26113
       364.69484
       362.50153
       362.50557
       362.59816
       365.37452
       364.92880
       362.25058
       364.19891
       361.27113
       362.73358
       363.02026
       362.14278
       361.57492
       360.67438
       361.11217
       366.11398
       362.47885
       359.69695
       364.44182
       362.48110
       362.17283
       362.19875
       363.69639
       364.54294
       363.42710
       361.75628
       364.86934
       361.48196
       362.81296
       363.71503
       362.67683
       361.58254
       363.58765
       360.16922
       360.90764
       364.79099
       362.83584
       364.40522
       362.99795
       363.84267
       362.32216
       362.81854
       364.79158
       362.30042
       360.70549
       361.78180
       360.94086
       362.60812
       365.08270
       363.46138
       360.35420
       363.35450
       362.37860
       361.62068
       359.91075
       362.97328
       364.09411
       361.29616
       360.21494
       361.39216
       362.58332
       363.33274
       362.92767
       365.09633
       364.87953
       359.60882
       359.99175
       363.53893
       362.83371
       361.21586
       360.54554
       363.52155
       363.20359
       361.66805
       360.52848
       362.95321
       361.04418
       360.07081
       361.88812
       362.86602
       365.81305
       365.46628
       362.89252
       364.01642
       365.27115
       361.97457
       362.59259
       359.23099
       360.67069
       363.88752
       361.40100
       361.00686
       364.02712
       363.91254
       364.09324
       363.71773
       360.32380
       360.06462
       360.22921
       362.69109
       361.75446
       363.33624
       362.17453
       361.83051
       361.65809
       364.12812
       362.79209
       362.79813
       364.07272
       363.81378
       361.43078
       359.88893
       359.86298
       362.32240
       363.99820
       360.65714
       364.22411
       365.70986
       367.21609
       363.05536
       363.98299
       362.65340
       362.39922
       362.16069
       361.87310
       363.08391
       363.70563
       360.72315
       360.11944
       362.80874
       363.17284
       365.45350
       363.06962
       364.66144
       362.79182
       362.40483
       361.64618
       363.89005
       362.79491
       362.27842
       362.31109
       361.65772
       360.33379
       361.23741
       361.58550
       362.42019
       362.20419
       361.82368
       359.65668
       361.62645
       362.75160
       361.87413
       360.99096
       362.16539
       361.19508
       362.88198
       362.63381
       363.36512
       362.79863
       363.66967
       359.94334
       359.75445
       364.15387
       362.23066
       366.34409
       364.13926
       365.65530
       363.30463
       360.87273
       361.42198
       362.91860
       363.48515
       362.57014
       363.17083
       361.08761
       361.77235
       361.95265
       361.63996
       363.67881
       360.11234
       362.96044
       362.82415
       359.31329
       363.75154
       364.04218
       360.39285
       364.46187
       364.16806
       362.51405
       362.40158
       363.83234
       364.79265
       362.10841
       362.54447
       371.92877
       364.21970
       361.56124
       362.18922
       362.68488
       362.76721
       361.32203
       362.95601
       364.73806
       361.71359
       362.12681
       360.47096
       360.64744
       365.72693
       362.91231
       360.39424
       361.02450
       362.59835
       364.30721
       362.99596
       361.00461
       361.40888
       361.10248
       361.71990
       360.38676
       362.38378
       360.59720
       361.12052
       359.86605
       361.25095
       364.17165
       362.52879
       360.68005
       361.31360
       362.16754
       359.54816
       359.90282
       361.26113
       363.36852
       362.12623
       361.10663
       362.50312
       360.04236
       362.18607
       362.90380
       363.80928
       361.17938
       361.71703
       364.65556
       363.80236
       361.60561
       362.52394
       362.00182
       360.44374
       360.03327
       361.66583
       359.42980
       361.14567
       363.60045
       363.19219
       363.65620
       360.87561
       365.03638
       360.97976
       362.66922
       360.65299
       361.85311
       363.87800
       361.07622
       363.08000
       363.52317
       359.92709
       363.43251
       362.85012
       364.18262
       361.29425
       362.33484
       361.55995
       359.33508
       363.35726
       359.85022
       362.82286
       361.83620
       361.98384
       361.39052
       359.64869
       359.65939
       359.81505
       359.79999
       359.79999
      351.200
      351.800
      349.400
      351.000
      349.000
      351.000
      350.600
      350.800
      349.800
      350.400
      351.200
      351.000
      349.600
      349.600
      350.200
      350.600
      349.800
      351.000
      350.000
      348.800
      351.000
      351.000
      349.600
      348.600
      350.800
      350.600
      349.600
      349.800
      349.600
      350.200
      350.400
      349.600
      350.400
      351.600
      351.400
      350.600
      350.400
      351.200
      349.400
      350.400
      350.200
      350.000
      350.800
      350.000
      349.600
      351.000
      350.800
      350.800
      350.600
      353.800
