/data/ops/data/incoming/CL9_404238503EDR_F0050104CCAM02076M2_spect.TXT
 
Spectrometer Setup:
spectControlByte: 2
imageType: 2
spectromerSerialClock: 1
spectromerSelect: 14
IPBCdivisor: 3300
ICTdivisor: 4000
startRowUV: 100
stopRowUV: 300
startRowVIS: 75
stopRowVIS: 275
startRowVNIR: 100
stopRowVNIR: 300
VNIRtriggerDelay: 5
VIStriggerDelay: 5
UVtriggerDelay: 5
verticalClockSelect: 2
 
DOLIBS setup:
focusAlgorithm: 0
controlWord: 0
fromLimitSwitch: 0
NshotsToIgnore: 0
NshotsToAverage: 0
Nshots: 1
distToTarget: 1582
>>>>>Begin Processed Spectral Data<<<<<
      338.867
      335.333
      335.433
      335.367
      335.700
      335.633
      335.733
      336.067
      335.467
      335.267
      335.600
      335.067
      335.333
      334.600
      335.533
      334.567
      334.700
      335.167
      334.900
      335.167
      334.567
      334.500
      334.700
      334.033
      335.067
      335.100
      334.667
      334.233
      334.467
      334.633
      334.533
      334.833
      334.067
      334.867
      333.700
      334.067
      333.900
      335.300
      334.300
      334.367
      333.600
      333.967
      333.433
      333.333
      333.833
      333.700
      334.533
      334.133
      334.967
      335.167
       5416.3282
       5605.5801
       5957.2850
       6307.0456
       6463.3156
       6853.0779
       7227.7577
       7335.4725
       7609.5065
       7958.3874
       8136.2558
       8312.4084
       8666.8057
       8867.9105
       9044.9586
       9205.4340
       9631.5189
       10079.789
       10347.007
       10692.802
       10989.871
       11190.755
       11279.644
       11325.156
       11303.311
       11311.111
       11484.472
       12039.362
       12317.965
       12398.800
       12249.644
       12226.119
       12367.737
       12340.749
       12360.559
       12464.680
       12607.026
       12753.563
       12840.041
       12898.689
       12828.092
       12659.539
       12695.964
       12739.021
       12672.986
       12972.080
       12976.836
       12770.123
       12653.474
       12590.710
       12761.510
       12909.611
       12854.131
       12733.273
       12538.128
       12189.236
       11592.520
       10970.486
       10779.626
       11509.331
       12392.424
       12810.696
       12898.648
       13022.619
       13352.205
       13780.796
       14124.732
       14176.470
       14128.458
       14091.467
       14121.749
       14377.365
       15176.346
       15819.625
       15987.007
       16089.164
       16130.555
       16265.502
       16378.186
       16385.804
       16383.000
       16383.000
       16383.040
       16382.637
       16382.792
       16383.030
       16383.000
       16383.000
       16383.000
       16383.000
       16383.000
       16383.000
       16383.000
       16383.000
       16383.000
       16383.000
       16383.000
       16383.000
       16383.000
       16383.000
       16383.000
       16383.000
       16383.000
       16383.000
       16383.000
       16383.000
       16383.000
       16383.000
       16383.000
       16383.000
       16383.000
       16383.000
       16383.000
       16383.000
       16383.000
       16383.000
       16383.000
       16383.000
       16383.000
       16383.000
       16383.000
       16383.000
       16383.000
       16383.000
       16383.000
       16383.000
       16383.000
       16383.000
       16383.000
       16383.000
       16383.000
       16383.000
       16383.000
       16383.000
       16383.000
       16383.000
       16383.000
       16383.000
       16383.000
       16383.000
       16383.000
       16383.000
       16383.000
       16383.000
       16383.000
       16383.000
       16383.000
       16383.000
       16383.000
       16383.000
       16383.000
       16383.000
       16383.000
       16383.000
       16383.000
       16383.000
       16383.000
       16383.000
       16383.000
       16383.000
       16383.000
       16383.000
       16383.000
       16383.000
       16383.000
       16383.000
       16383.000
       16383.000
       16383.000
       16383.000
       16383.000
       16383.000
       16383.000
       16383.000
       16383.000
       16383.000
       16383.000
       16383.000
       16383.000
       16383.000
       16383.000
       16383.000
       16383.000
       16383.000
       16383.000
       16383.000
       16383.000
       16383.000
       16383.000
       16383.000
       16383.000
       16383.000
       16383.000
       16383.000
       16383.000
       16383.000
       16383.000
       16383.000
       16383.000
       16383.000
       16383.000
       16383.000
       16383.000
       16383.000
       16383.000
       16383.000
       16383.000
       16383.000
       16383.000
       16383.000
       16383.000
       16383.000
       16383.000
       16383.000
       16383.000
       16383.000
       16383.000
       16383.000
       16383.000
       16383.000
       16383.000
       16383.000
       16383.000
       16383.000
       16383.000
       16383.000
       16383.000
       16383.000
       16383.000
       16383.000
       16383.000
       16383.000
       16383.000
       16383.000
       16383.000
       16383.000
       16383.000
       16383.000
       16383.000
       16383.000
       16383.000
       16383.000
       16383.000
       16383.000
       16383.000
       16383.000
       16383.000
       16383.000
       16383.000
       16383.000
       16383.000
       16383.000
       16383.000
       16383.000
       16383.000
       16383.000
       16383.000
       16383.000
       16383.000
       16383.000
       16383.000
       16383.000
       16383.000
       16383.000
       16383.000
       16383.000
       16383.000
       16383.000
       16383.000
       16383.000
       16383.000
       16383.000
       16383.000
       16383.000
       16383.000
       16383.000
       16383.000
       16383.000
       16383.000
       16383.000
       16383.000
       16383.000
       16383.000
       16383.000
       16383.000
       16383.000
       16383.000
       16383.000
       16383.000
       16383.000
       16383.000
       16383.000
       16383.000
       16383.000
       16383.000
       16383.000
       16383.000
       16383.000
       16383.000
       16383.000
       16383.000
       16383.000
       16383.000
       16383.000
       16383.000
       16383.000
       16383.000
       16383.000
       16383.000
       16383.000
       16383.000
       16383.000
       16383.000
       16383.000
       16383.000
       16383.000
       16383.000
       16383.000
       16383.000
       16383.000
       16383.000
       16383.000
       16383.000
       16383.000
       16383.000
       16383.000
       16383.000
       16383.000
       16383.000
       16383.000
       16383.000
       16383.000
       16383.000
       16383.000
       16383.000
       16383.000
       16383.000
       16383.000
       16383.000
       16383.000
       16383.000
       16383.000
       16383.000
       16383.000
       16383.000
       16383.000
       16383.000
       16383.000
       16383.000
       16383.000
       16383.000
       16383.000
       16383.000
       16383.000
       16383.000
       16383.000
       16383.000
       16383.000
       16383.000
       16383.000
       16383.000
       16383.000
       16383.000
       16383.000
       16383.000
       16383.000
       16383.000
       16383.000
       16383.000
       16383.000
       16383.000
       16383.000
       16383.000
       16383.000
       16383.000
       16383.000
       16383.000
       16383.000
       16383.000
       16383.000
       16383.000
       16383.000
       16383.000
       16383.000
       16383.000
       16383.000
       16383.000
       16383.000
       16383.000
       16383.000
       16383.000
       16383.000
       16383.000
       16383.000
       16383.000
       16383.000
       16383.000
       16383.000
       16383.000
       16383.000
       16383.000
       16383.000
       16383.000
       16383.000
       16383.000
       16383.000
       16383.000
       16383.000
       16383.000
       16383.000
       16383.000
       16383.000
       16383.000
       16383.000
       16383.000
       16383.000
       16383.000
       16383.000
       16383.000
       16383.000
       16383.000
       16383.000
       16383.000
       16383.000
       16383.000
       16383.000
       16383.000
       16383.000
       16383.000
       16383.000
       16383.000
       16383.000
       16383.000
       16383.000
       16383.000
       16383.000
       16383.000
       16383.000
       16383.000
       16383.000
       16383.000
       16383.000
       16383.000
       16383.000
       16383.000
       16383.000
       16383.000
       16383.000
       16383.000
       16383.000
       16383.000
       16383.000
       16383.000
       16383.000
       16383.000
       16383.000
       16383.000
       16383.000
       16383.000
       16383.000
       16383.000
       16383.000
       16383.000
       16383.000
       16383.000
       16383.000
       16383.000
       16383.000
       16383.000
       16383.000
       16383.000
       16383.000
       16383.000
       16383.000
       16383.000
       16383.000
       16383.000
       16383.000
       16383.000
       16383.000
       16383.000
       16383.000
       16383.000
       16383.000
       16383.000
       16383.000
       16383.000
       16383.000
       16383.000
       16383.000
       16383.000
       16383.000
       16383.000
       16383.000
       16383.000
       16383.000
       16383.000
       16383.000
       16383.000
       16383.000
       16383.000
       16383.000
       16383.000
       16383.000
       16383.000
       16383.000
       16383.000
       16383.000
       16383.000
       16383.000
       16383.000
       16383.000
       16383.000
       16383.000
       16383.000
       16383.000
       16383.000
       16383.000
       16383.000
       16383.000
       16383.000
       16383.000
       16383.000
       16383.000
       16383.000
       16383.000
       16383.000
       16383.000
       16383.000
       16383.000
       16383.000
       16383.000
       16383.000
       16383.000
       16383.000
       16383.000
       16383.000
       16383.000
       16383.000
       16383.000
       16383.000
       16383.000
       16383.000
       16383.000
       16383.000
       16383.000
       16383.000
       16383.000
       16383.000
       16383.000
       16383.000
       16383.000
       16383.000
       16383.000
       16383.000
       16383.000
       16383.000
       16383.000
       16383.000
       16383.000
       16383.000
       16383.000
       16383.000
       16383.000
       16383.000
       16383.000
       16383.000
       16383.000
       16383.000
       16383.000
       16383.000
       16383.000
       16383.000
       16383.000
       16383.000
       16383.000
       16383.000
       16383.000
       16383.000
       16383.000
       16383.000
       16383.000
       16383.000
       16383.000
       16383.000
       16383.000
       16383.000
       16383.000
       16383.000
       16383.000
       16383.000
       16383.000
       16383.000
       16383.000
       16383.000
       16383.000
       16383.000
       16383.000
       16383.000
       16383.000
       16383.000
       16383.000
       16383.000
       16383.000
       16383.000
       16383.000
       16383.000
       16383.000
       16383.000
       16383.000
       16383.000
       16383.000
       16383.000
       16383.000
       16383.000
       16383.000
       16383.000
       16383.000
       16383.000
       16383.000
       16383.000
       16383.000
       16383.000
       16383.000
       16383.000
       16383.000
       16383.000
       16383.000
       16383.000
       16383.000
       16383.000
       16383.000
       16383.000
       16383.000
       16383.000
       16383.000
       16383.000
       16383.000
       16383.000
       16383.000
       16383.000
       16383.000
       16383.000
       16383.000
       16383.000
       16383.000
       16383.000
       16383.000
       16383.000
       16383.000
       16383.000
       16383.000
       16383.000
       16383.000
       16383.000
       16383.000
       16383.000
       16383.000
       16383.000
       16383.000
       16383.000
       16383.000
       16383.000
       16383.000
       16383.000
       16383.000
       16383.000
       16383.000
       16383.000
       16383.000
       16383.000
       16383.000
       16383.000
       16383.000
       16383.000
       16383.000
       16383.000
       16383.000
       16383.000
       16383.000
       16383.000
       16383.000
       16383.000
       16383.000
       16383.000
       16383.000
       16383.000
       16383.000
       16383.000
       16383.000
       16383.000
       16383.000
       16383.000
       16383.000
       16383.000
       16383.000
       16383.000
       16383.000
       16383.000
       16383.000
       16383.000
       16383.000
       16383.000
       16383.000
       16383.000
       16383.000
       16383.000
       16383.000
       16383.000
       16383.000
       16383.000
       16383.000
       16383.000
       16383.000
       16383.000
       16383.000
       16383.000
       16383.000
       16383.000
       16383.000
       16383.000
       16383.000
       16383.000
       16383.000
       16383.000
       16383.000
       16383.000
       16383.000
       16383.000
       16383.000
       16383.000
       16383.000
       16383.000
       16383.000
       16383.000
       16383.000
       16383.000
       16383.000
       16383.000
       16383.000
       16383.000
       16383.000
       16383.000
       16383.000
       16383.000
       16383.000
       16383.000
       16383.000
       16383.000
       16383.000
       16383.000
       16383.000
       16383.000
       16383.000
       16383.000
       16383.000
       16383.000
       16383.000
       16383.000
       16383.000
       16383.000
       16383.000
       16383.000
       16383.000
       16383.000
       16383.000
       16383.000
       16383.000
       16383.000
       16383.000
       16383.000
       16383.000
       16383.000
       16383.000
       16383.000
       16383.000
       16383.000
       16383.000
       16383.000
       16383.000
       16383.000
       16383.000
       16383.000
       16383.000
       16383.000
       16383.000
       16383.000
       16383.000
       16383.000
       16383.000
       16383.000
       16383.000
       16383.000
       16383.000
       16383.000
       16383.000
       16383.000
       16383.000
       16383.000
       16383.000
       16383.000
       16383.000
       16383.000
       16383.000
       16383.000
       16383.000
       16383.000
       16383.000
       16383.000
       16383.000
       16383.000
       16383.000
       16383.000
       16383.000
       16383.000
       16383.000
       16383.000
       16383.000
       16383.000
       16383.000
       16383.000
       16383.000
       16383.000
       16383.000
       16383.000
       16383.000
       16383.000
       16383.000
       16383.000
       16383.000
       16383.000
       16383.000
       16383.000
       16383.000
       16383.000
       16383.000
       16383.000
       16383.000
       16383.000
       16383.000
       16383.000
       16383.000
       16383.000
       16383.000
       16383.000
       16383.000
       16383.000
       16383.000
       16383.000
       16383.000
       16383.000
       16383.000
       16383.000
       16383.000
       16383.000
       16383.000
       16383.000
       16383.000
       16383.000
       16383.000
       16383.000
       16383.000
       16383.000
       16383.000
       16383.000
       16383.000
       16383.000
       16383.000
       16383.000
       16383.000
       16383.000
       16383.000
       16383.000
       16383.000
       16383.000
       16383.000
       16383.000
       16383.000
       16383.000
       16383.000
       16383.000
       16383.000
       16383.000
       16383.000
       16383.000
       16383.000
       16383.000
       16383.000
       16383.000
       16383.000
       16383.000
       16383.000
       16383.000
       16383.000
       16383.000
       16383.000
       16383.000
       16383.000
       16383.000
       16383.000
       16383.000
       16383.000
       16383.000
       16383.000
       16383.000
       16383.000
       16383.000
       16383.000
       16383.000
       16383.000
       16383.000
       16383.000
       16383.000
       16383.000
       16383.000
       16383.000
       16383.000
       16383.000
       16383.000
       16383.000
       16383.000
       16383.000
       16383.000
       16383.000
       16383.000
       16383.000
       16383.000
       16383.000
       16383.000
       16383.000
       16383.000
       16383.000
       16383.000
       16383.000
       16383.000
       16383.000
       16383.000
       16383.000
       16383.000
       16383.000
       16383.000
       16383.000
       16383.000
       16383.000
       16383.000
       16383.000
       16383.000
       16383.000
       16383.000
       16383.000
       16383.000
       16383.000
       16383.000
       16383.000
       16383.000
       16383.000
       16383.000
       16383.000
       16383.000
       16383.000
       16383.000
       16383.000
       16383.000
       16383.000
       16383.000
       16383.000
       16383.000
       16383.000
       16383.000
       16383.000
       16383.000
       16383.000
       16383.000
       16383.000
       16383.000
       16383.000
       16383.000
       16383.000
       16383.000
       16383.000
       16383.000
       16383.000
       16383.000
       16383.000
       16383.000
       16383.000
       16383.000
       16383.000
       16383.000
       16383.000
       16383.000
       16383.000
       16383.000
       16383.000
       16383.000
       16383.000
       16383.000
       16383.000
       16383.000
       16383.000
       16383.000
       16383.000
       16383.000
       16383.000
       16383.000
       16383.000
       16383.000
       16383.000
       16383.000
       16383.000
       16383.000
       16383.000
       16383.000
       16383.000
       16383.000
       16383.000
       16383.000
       16383.000
       16383.000
       16383.000
       16383.000
       16383.000
       16383.000
       16383.000
       16383.000
       16383.000
       16383.000
       16383.000
       16383.000
       16383.000
       16383.000
       16383.000
       16383.000
       16383.000
       16383.000
       16383.000
       16383.000
       16383.000
       16383.000
       16383.000
       16383.000
       16383.000
       16383.000
       16383.000
       16383.000
       16383.000
       16383.000
       16383.000
       16383.000
       16383.000
       16383.000
       16383.000
       16383.000
       16383.000
       16383.000
       16383.000
       16383.000
       16383.000
       16383.000
       16383.000
       16383.000
       16383.000
       16383.000
       16383.000
       16383.000
       16383.000
       16383.000
       16383.000
       16383.000
       16383.000
       16383.000
       16383.000
       16383.000
       16383.000
       16383.000
       16383.000
       16383.000
       16383.000
       16383.000
       16383.000
       16383.000
       16383.000
       16383.000
       16383.000
       16383.000
       16383.000
       16383.000
       16383.000
       16383.000
       16383.000
       16383.000
       16383.000
       16383.000
       16383.000
       16383.000
       16383.000
       16383.000
       16383.000
       16383.000
       16383.000
       16383.000
       16383.000
       16383.000
       16383.000
       16383.000
       16383.000
       16383.000
       16383.000
       16383.000
       16383.000
       16383.000
       16383.000
       16383.000
       16383.000
       16383.000
       16383.000
       16383.000
       16383.000
       16383.000
       16383.000
       16383.000
       16383.000
       16383.000
       16383.000
       16383.000
       16383.000
       16383.000
       16383.000
       16383.000
       16383.000
       16383.000
       16383.000
       16383.000
       16383.000
       16383.000
       16383.000
       16383.000
       16383.000
       16383.000
       16383.000
       16383.000
       16383.000
       16383.000
       16383.000
       16383.000
       16383.000
       16383.000
       16383.000
       16383.000
       16383.000
       16383.000
       16383.000
       16383.000
       16383.000
       16383.000
       16383.000
       16383.000
       16383.000
       16383.000
       16383.000
       16383.000
       16383.000
       16383.000
       16383.000
       16383.000
       16383.000
       16383.000
       16383.000
       16383.000
       16383.000
       16383.000
       16383.000
       16383.000
       16383.000
       16383.000
       16383.000
       16383.000
       16383.000
       16383.000
       16383.000
       16383.000
       16383.000
       16383.000
       16383.000
       16383.000
       16383.000
       16383.000
       16383.000
       16383.000
       16383.000
       16383.000
       16383.000
       16383.000
       16383.000
       16383.000
       16383.000
       16383.000
       16383.000
       16383.000
       16383.000
       16383.000
       16383.000
       16383.000
       16383.000
       16383.000
       16383.000
       16383.000
       16383.000
       16383.000
       16383.000
       16383.000
       16383.000
       16383.000
       16383.000
       16383.000
       16383.000
       16383.000
       16383.000
       16383.000
       16383.000
       16383.000
       16383.000
       16383.000
       16383.000
       16383.000
       16383.000
       16383.000
       16383.000
       16383.000
       16383.000
       16383.000
       16383.000
       16383.000
       16383.000
       16383.000
       16383.000
       16383.000
       16383.000
       16383.000
       16383.000
       16383.000
       16383.000
       16383.000
       16383.000
       16383.000
       16383.000
       16383.000
       16383.000
       16383.000
       16383.000
       16383.000
       16383.000
       16383.000
       16383.000
       16383.000
       16383.000
       16383.000
       16383.000
       16383.000
       16383.000
       16383.000
       16383.000
       16383.000
       16383.000
       16383.000
       16383.000
       16383.000
       16383.000
       16383.000
       16383.000
       16383.000
       16383.000
       16383.000
       16383.000
       16383.000
       16383.000
       16383.000
       16383.000
       16383.000
       16383.000
       16383.000
       16383.000
       16383.000
       16383.000
       16383.000
       16383.000
       16383.000
       16383.000
       16383.000
       16383.000
       16383.000
       16383.000
       16383.000
       16383.000
       16383.000
       16383.000
       16383.000
       16383.000
       16383.000
       16383.000
       16383.000
       16383.000
       16383.000
       16383.000
       16383.000
       16383.000
       16383.000
       16383.000
       16383.000
       16383.000
       16383.000
       16383.000
       16383.000
       16383.000
       16383.000
       16383.000
       16383.000
       16383.000
       16383.000
       16383.000
       16383.000
       16383.000
       16383.000
       16383.000
       16383.000
       16383.000
       16383.000
       16383.000
       16383.000
       16383.000
       16383.000
       16383.000
       16383.000
       16383.000
       16383.000
       16383.000
       16383.000
       16383.000
       16383.000
       16383.000
       16383.000
       16383.000
       16383.000
       16383.000
       16383.000
       16383.000
       16383.000
       16383.000
       16383.000
       16383.000
       16383.000
       16383.000
       16383.000
       16383.000
       16383.000
       16383.000
       16383.000
       16383.000
       16383.000
       16383.000
       16383.000
       16383.000
       16383.000
       16383.000
       16383.000
       16383.000
       16383.000
       16383.000
       16383.000
       16383.000
       16383.000
       16383.000
       16383.000
       16383.000
       16383.000
       16383.000
       16383.000
       16383.000
       16383.000
       16383.000
       16383.000
       16383.000
       16383.000
       16383.000
       16383.000
       16383.000
       16383.000
       16383.000
       16383.000
       16383.000
       16383.000
       16383.000
       16383.000
       16383.000
       16383.000
       16383.000
       16383.000
       16383.000
       16383.000
       16383.000
       16383.000
       16383.000
       16383.000
       16383.000
       16383.000
       16383.000
       16383.000
       16383.000
       16383.000
       16383.000
       16383.000
       16383.000
       16383.000
       16383.000
       16383.000
       16383.000
       16383.000
       16383.000
       16383.000
       16383.000
       16383.000
       16383.000
       16383.000
       16383.000
       16383.000
       16383.000
       16383.000
       16383.000
       16383.000
       16383.000
       16383.000
       16383.000
       16383.000
       16383.000
       16383.000
       16383.000
       16383.000
       16383.000
       16383.000
       16383.000
       16383.000
       16383.000
       16383.000
       16383.000
       16383.000
       16383.000
       16383.000
       16383.000
       16383.000
       16383.000
       16383.000
       16383.000
       16383.000
       16383.000
       16383.000
       16383.000
       16383.000
       16383.000
       16383.000
       16383.000
       16383.000
       16383.000
       16383.000
       16383.000
       16383.000
       16383.000
       16383.000
       16383.000
       16383.000
       16383.000
       16383.000
       16383.000
       16383.000
       16383.000
       16383.000
       16383.000
       16383.000
       16383.000
       16383.000
       16383.000
       16383.000
       16383.000
       16383.000
       16383.000
       16383.000
       16383.000
       16383.000
       16383.000
       16383.000
       16383.000
       16383.000
       16383.000
       16383.000
       16383.000
       16383.000
       16383.000
       16383.000
       16383.000
       16383.000
       16383.000
       16383.000
       16383.000
       16383.000
       16383.000
       16383.000
       16383.000
       16383.000
       16383.000
       16383.000
       16383.000
       16383.000
       16383.000
       16383.000
       16383.000
       16383.000
       16383.000
       16383.000
       16383.000
       16383.000
       16383.000
       16383.000
       16383.000
       16383.000
       16383.000
       16383.000
       16383.000
       16383.000
       16383.000
       16383.000
       16383.000
       16383.000
       16383.000
       16383.000
       16383.000
       16383.000
       16383.000
       16383.000
       16383.000
       16383.000
       16383.000
       16383.000
       16383.000
       16383.000
       16383.000
       16383.000
       16383.000
       16383.000
       16383.000
       16383.000
       16383.000
       16383.000
       16383.000
       16383.000
       16383.000
       16383.000
       16383.000
       16383.000
       16383.000
       16383.000
       16383.000
       16383.000
       16383.000
       16383.000
       16383.000
       16383.000
       16383.000
       16383.000
       16383.000
       16383.000
       16383.000
       16383.000
       16383.000
       16383.000
       16383.000
       16383.000
       16383.000
       16383.000
       16383.000
       16383.000
       16383.000
       16383.000
       16383.000
       16383.000
       16383.000
       16383.000
       16383.000
       16383.000
       16383.000
       16383.000
       16383.000
       16383.000
       16383.000
       16383.000
       16383.000
       16383.000
       16383.000
       16383.000
       16383.000
       16383.000
       16383.000
       16383.000
       16383.000
       16383.000
       16383.000
       16383.000
       16383.000
       16383.000
       16383.000
       16383.000
       16383.000
       16383.000
       16383.000
       16383.000
       16383.000
       16383.000
       16383.000
       16383.000
       16383.000
       16383.000
       16383.000
       16383.000
       16383.000
       16383.000
       16383.000
       16383.000
       16383.000
       16383.000
       16383.000
       16383.000
       16383.000
       16383.000
       16383.000
       16383.000
       16383.000
       16383.000
       16383.000
       16383.000
       16383.000
       16383.000
       16383.000
       16383.000
       16383.000
       16383.000
       16383.000
       16383.000
       16383.000
       16383.000
       16383.000
       16383.000
       16383.000
       16383.000
       16383.000
       16383.000
       16383.000
       16383.000
       16383.000
       16383.000
       16383.000
       16383.000
       16383.000
       16383.000
       16383.000
       16383.000
       16383.000
       16383.000
       16383.000
       16383.000
       16383.000
       16383.000
       16383.000
       16383.000
       16383.000
       16383.000
       16383.000
       16383.000
       16383.000
       16383.000
       16383.000
       16383.000
       16383.000
       16383.000
       16383.000
       16383.000
       16383.000
       16383.000
       16383.000
       16383.000
       16383.000
       16383.000
       16383.000
       16383.000
       16383.000
       16383.000
       16383.000
       16383.000
       16383.000
       16383.000
       16383.000
       16383.000
       16383.000
       16383.000
       16383.000
       16383.000
       16383.000
       16383.000
       16383.000
       16383.000
       16383.000
       16383.000
       16383.000
       16383.000
       16383.000
       16383.000
       16383.000
       16383.000
       16383.000
       16383.000
       16383.000
       16383.000
       16383.000
       16383.000
       16383.000
       16383.000
       16383.000
       16383.000
       16383.000
       16383.000
       16383.000
       16383.000
       16383.000
       16383.000
       16383.000
       16383.000
       16383.000
       16383.000
       16383.000
       16383.000
       16383.000
       16383.000
       16383.000
       16383.000
       16383.000
       16383.000
       16383.000
       16383.000
       16383.000
       16383.000
       16383.000
       16383.000
       16383.000
       16383.000
       16383.000
       16383.000
       16383.000
       16383.000
       16383.000
       16383.000
       16383.000
       16383.000
       16383.000
       16383.000
       16383.000
       16383.000
       16383.000
       16383.000
       16383.000
       16383.000
       16383.000
       16383.000
       16383.000
       16383.000
       16383.000
       16383.000
       16383.000
       16383.000
       16383.000
       16383.000
       16383.000
       16383.000
       16383.000
       16383.000
       16383.000
       16383.000
       16383.000
       16383.000
       16383.000
       16383.000
       16383.000
       16383.000
       16383.000
       16383.000
       16383.000
       16383.000
       16383.000
       16383.000
       16383.000
       16383.000
       16383.000
       16383.000
       16383.000
       16383.000
       16383.000
       16383.000
       16383.000
       16383.000
       16383.000
       16383.000
       16383.000
       16383.000
       16383.000
       16383.000
       16383.000
       16383.000
       16383.000
       16383.000
       16383.000
       16383.000
       16383.000
       16383.000
       16383.000
       16383.000
       16383.000
       16383.000
       16383.000
       16383.000
       16383.000
       16383.000
       16383.000
       16383.000
       16383.000
       16383.000
       16383.000
       16383.000
       16383.000
       16383.000
       16383.000
       16383.000
       16383.000
       16383.000
       16383.000
       16383.000
       16383.000
       16383.000
       16383.000
       16383.000
       16383.000
       16383.000
       16383.000
       16383.000
       16383.000
       16383.000
       16383.000
       16383.000
       16383.000
       16383.000
       16383.000
       16383.000
       16383.000
       16383.000
       16383.000
       16383.000
       16383.000
       16383.000
       16383.000
       16383.000
       16383.000
       16383.000
       16383.000
       16383.000
       16383.000
       16383.000
       16383.000
       16383.000
       16383.000
       16383.000
       16383.000
       16383.000
       16383.000
       16383.000
       16383.000
       16383.000
       16383.000
       16383.000
       16383.000
       16383.000
       16383.000
       16383.000
       16383.000
       16383.000
       16383.000
       16383.000
       16383.000
       16383.000
       16383.000
       16383.000
       16383.000
       16383.000
       16383.000
       16383.000
       16383.000
       16383.000
       16383.000
       16383.000
       16383.000
       16383.000
       16383.000
       16383.000
       16383.000
       16383.000
       16383.000
       16383.000
       16383.000
       16383.000
       16383.000
       16383.000
       16383.000
       16383.000
       16383.000
       16383.000
       16383.000
       16383.000
       16383.000
       16383.000
       16383.000
       16383.000
       16383.000
       16383.000
       16383.000
       16383.000
       16383.000
       16383.000
       16383.000
       16383.000
       16383.000
       16383.000
       16383.000
       16383.000
       16383.000
       16383.000
       16383.000
       16383.000
       16383.000
       16383.000
       16383.000
       16383.000
       16383.000
       16383.000
       16383.000
       16383.000
       16383.000
       16383.000
       16383.000
       16383.000
       16383.000
       16383.000
       16383.000
       16383.000
       16383.000
       16383.000
       16383.000
       16383.000
       16383.000
       16383.000
       16383.000
       16383.000
       16383.000
       16383.000
       16383.000
       16383.000
       16383.000
       16383.000
       16383.000
       16383.000
       16386.026
       16371.035
       16071.193
       15749.715
       15409.357
       15034.357
       14551.483
       14211.326
       13907.525
       13586.642
       13257.014
       13017.547
       12647.081
       12188.445
       11869.937
       11418.120
       11179.495
       10688.113
       10345.615
       10249.724
       9798.1741
       9399.8041
       9064.2004
       8802.6731
       8384.2586
       8110.9698
       7623.1190
       7289.8482
       6952.7110
       6611.9722
       6287.0036
       5916.2659
       5622.7006
       5329.3261
       5045.0573
       4737.4382
       4608.9259
       4259.1479
       4068.9594
       3914.6896
       3781.1067
       3453.5971
       3231.7130
       3058.5337
       2949.0075
       2872.6395
       2606.9316
       2537.4396
       2525.6267
       2390.8932
       2233.6798
       2209.1758
       2127.3429
       2195.2238
       1974.9900
       1981.6102
       1982.0740
       1908.3726
       1936.7143
       1888.4177
       1910.1311
       1869.6300
       1867.8881
       1764.5555
       1876.0089
       1825.8578
       1791.8821
       1981.2695
       1890.9670
       1748.1347
       1836.0783
       1706.1407
       1711.1300
       1711.1300
       1711.1300
      472.167
      481.100
      479.800
      477.267
      477.967
      476.633
      475.600
      475.167
      475.467
      475.267
      474.467
      472.767
      472.333
      471.567
      469.933
      471.267
      470.267
      468.700
      467.800
      468.667
      466.167
      467.967
      466.133
      465.667
      464.867
      463.733
      464.767
      464.800
      463.100
      462.400
      462.367
      461.100
      460.333
      460.167
      460.067
      460.400
      458.367
      458.700
      458.400
      458.400
      457.167
      457.367
      455.667
      456.700
      455.900
      456.000
      454.400
      453.267
      454.100
      455.667
      360.033
      362.733
      363.533
      364.100
      363.833
      363.933
      364.033
      364.200
      363.233
      363.400
      363.300
      363.433
      363.667
      363.867
      363.167
      362.533
      363.067
      363.533
      363.200
      363.233
      362.967
      363.700
      362.733
      363.200
      363.033
      363.633
      362.733
      362.200
      362.300
      362.867
      362.500
      362.667
      362.400
      362.700
      362.867
      362.267
      363.000
      363.600
      362.300
      362.700
      362.133
      362.067
      362.000
      362.200
      362.133
      362.300
      362.167
      362.267
      363.700
      363.667
       1000.0539
       1081.7684
       1191.5941
       1154.2404
       1273.6129
       1178.9597
       1319.8360
       1226.7181
       1220.3106
       1310.1469
       1036.4427
       1187.5486
       1110.7681
       1067.3307
       1091.0847
       1106.4674
       1195.8525
       1190.0780
       1111.1262
       1154.8387
       1284.0462
       1422.9356
       1285.7434
       1286.1374
       1326.1513
       1243.7339
       1114.6039
       1110.4476
       1167.5804
       1228.4178
       1229.8380
       1315.7038
       1520.5674
       1311.5028
       1385.8055
       1364.0384
       1427.8134
       1218.9480
       1298.5576
       1361.7118
       1338.6772
       1333.1413
       1454.4705
       1529.5254
       1425.4743
       1575.5133
       1861.7096
       1899.1331
       1883.6087
       1941.4787
       2017.0127
       2075.0221
       2045.0202
       2140.5435
       1980.1890
       1959.7083
       2239.7316
       2353.0310
       2230.0064
       2165.6876
       2122.4714
       2166.1435
       1953.9796
       2063.5862
       1924.4356
       2200.6339
       2310.7428
       2463.4334
       2306.9095
       2188.6742
       2175.1016
       2096.5698
       2088.0691
       2141.2707
       2100.4354
       2034.5922
       2034.4356
       2106.4161
       2119.1339
       2117.5975
       1968.1058
       1796.7478
       1854.7834
       1777.2843
       1902.8146
       1992.4344
       2124.0159
       2388.2984
       2544.1909
       2760.1921
       2748.7415
       2671.7042
       2704.5632
       2664.0749
       2643.9827
       2560.6952
       2543.1761
       2602.2377
       2689.1022
       2609.3882
       2624.8911
       2485.0706
       2496.7326
       2449.9371
       2371.7760
       2309.7641
       2278.5856
       2130.4810
       2142.0736
       2187.3435
       2156.6864
       2384.1832
       2520.3390
       2836.0409
       2944.3134
       3127.1369
       3015.7348
       3069.0175
       2926.2697
       2832.8746
       2692.2467
       2476.3709
       2404.9086
       2425.7468
       2693.9317
       2784.0198
       2814.2977
       2817.6947
       2670.3051
       2679.3361
       2403.7612
       2438.8619
       2671.5714
       2818.1639
       3067.8633
       3055.2532
       2943.5586
       2701.4261
       2573.5528
       2391.5629
       2450.8100
       2593.9636
       2737.2642
       2730.3122
       2584.8075
       2680.3648
       2776.8471
       2996.8676
       3339.6773
       3464.8517
       3475.3139
       3532.4063
       3516.0700
       3488.4421
       3371.0172
       3421.6913
       3536.2889
       3383.8429
       3361.7698
       3382.8318
       3596.9546
       3853.9001
       3965.8999
       3909.1198
       3692.7015
       3704.6437
       3558.3064
       3481.9023
       3495.5493
       3757.8352
       4064.5128
       3942.8997
       3726.3326
       3547.5670
       3348.9435
       3397.5300
       3556.3376
       3505.3886
       3469.9330
       3332.3535
       3185.0375
       3259.8389
       3545.3820
       3871.1763
       4063.9656
       4232.4090
       4231.3750
       4292.2435
       4246.9120
       4189.3801
       4206.5492
       4268.1158
       4445.4391
       4528.9680
       4559.8726
       4538.6063
       4478.7120
       4307.7146
       4433.7208
       4450.7733
       4421.8118
       4605.0094
       5071.5307
       4239.3943
       4308.8057
       4384.4626
       4409.5327
       4199.2028
       4013.1140
       4028.1428
       3988.6554
       3685.3661
       3512.5427
       3601.3725
       3793.6988
       3833.3506
       3980.4914
       3894.1738
       4142.0662
       4143.0624
       4205.4348
       3916.5409
       3681.1299
       3583.9091
       3518.2289
       3414.3588
       3348.2079
       3039.5673
       2713.1697
       2756.2454
       2677.6941
       2583.4853
       2385.8254
       2178.7796
       2103.7566
       2117.4082
       2138.8470
       1890.1881
       1788.0907
       1772.3952
       1798.8828
       1891.6438
       1960.7196
       2165.0744
       2287.1230
       2458.8911
       2638.5249
       2886.7037
       2957.7762
       3201.0401
       3380.3382
       3605.6470
       3767.8251
       3921.4470
       3924.0469
       4037.4060
       4041.1083
       4024.6606
       4161.3397
       4144.4609
       3935.8661
       3838.7204
       3972.8656
       4286.0369
       4726.6432
       5066.5944
       5311.7751
       5347.2363
       5182.8429
       4998.4500
       4946.5615
       5044.2009
       5238.0257
       5515.2173
       5777.4469
       5863.6384
       5891.9330
       5827.9250
       5685.5353
       5492.3550
       5229.2110
       5310.2867
       5723.7958
       6049.2269
       6179.2786
       5997.2627
       5796.4786
       5689.7012
       5391.4746
       5476.2842
       5841.4033
       5922.0807
       6075.1623
       6174.5602
       6163.8361
       6065.2802
       5781.1342
       5165.1107
       4570.4478
       4200.5362
       4063.7896
       4200.9008
       4325.1390
       4267.1772
       4280.5708
       4116.6845
       3902.7223
       3720.3624
       3318.1731
       3116.1329
       2839.4122
       2574.8208
       2461.4098
       2392.8407
       2295.9593
       2376.6938
       2662.3629
       2957.6718
       3330.5962
       3373.5923
       3692.3760
       3928.4661
       4260.4967
       4577.4468
       4605.3609
       4771.7604
       5024.1164
       5350.5166
       5758.9849
       6044.4430
       6210.8650
       6249.3434
       6402.0102
       6670.0241
       6888.7685
       7155.7855
       7346.5656
       7563.4601
       7783.5053
       8003.1043
       8094.1823
       8016.7356
       7807.3294
       7693.5442
       7682.3917
       7675.6985
       7747.9534
       7803.7176
       7785.7954
       8051.7012
       8144.1393
       8041.5513
       7996.9305
       7901.1768
       8052.7258
       8495.4283
       8965.8341
       9127.2346
       9029.4894
       8849.4932
       8589.0847
       8748.5495
       8951.1508
       9128.4121
       9250.7040
       9266.7228
       9375.9285
       9508.8905
       9591.6122
       9108.6659
       8980.4815
       9066.7110
       9041.7966
       9129.0631
       8988.7362
       8867.8066
       8575.1168
       8508.2568
       8734.0233
       9252.8178
       9768.9194
       10239.523
       10273.044
       10056.059
       9858.1412
       9748.9917
       10006.584
       10253.567
       10493.695
       10512.563
       10290.015
       9810.2799
       8997.6200
       8200.9472
       7918.6157
       8334.0095
       8923.8224
       9305.0006
       9706.9948
       10165.266
       10363.717
       10325.218
       10220.922
       10241.278
       10199.295
       10332.199
       10441.790
       10572.973
       10557.950
       10547.860
       10728.330
       10722.916
       10415.044
       10323.018
       10659.894
       10910.519
       11036.461
       10746.564
       10485.069
       10153.729
       9836.0704
       10025.869
       10592.784
       11032.701
       11333.265
       11141.692
       10739.223
       10632.834
       10785.695
       10794.254
       10808.110
       10901.467
       11065.613
       11070.079
       10765.441
       10430.605
       10366.844
       10533.961
       10824.590
       11178.204
       11323.782
       11534.390
       11515.243
       11604.999
       11538.008
       11472.395
       10975.318
       10424.330
       9538.6521
       9106.9648
       9293.6819
       9630.3621
       9683.3176
       9514.2910
       9302.3309
       9463.5913
       9945.1847
       9821.8384
       9952.6278
       10377.427
       10596.921
       11088.703
       11640.449
       11965.984
       11982.922
       12042.824
       11873.001
       11616.401
       11464.834
       11267.941
       10942.864
       10801.416
       10903.631
       11372.327
       11714.934
       11957.580
       11707.261
       10833.781
       10024.831
       9076.7353
       8200.3075
       7499.5894
       7123.6790
       7835.2678
       9379.5094
       10576.049
       11184.606
       11406.931
       11448.984
       11255.878
       11210.896
       11606.160
       11978.865
       12019.632
       11721.234
       11348.744
       10926.073
       10691.371
       10848.779
       11035.309
       10875.896
       10582.930
       10376.689
       10526.350
       10786.853
       10864.213
       10724.601
       10330.116
       9704.7626
       9704.7360
       10122.409
       10420.286
       10888.005
       11409.967
       11764.471
       11722.387
       11452.097
       11052.876
       10388.012
       9576.1679
       8758.8855
       8107.5323
       8334.4669
       9531.0049
       10842.262
       11173.454
       10989.926
       10531.986
       10150.421
       10150.496
       10580.560
       11137.068
       11777.656
       12159.335
       12211.885
       12069.002
       11418.083
       10446.883
       9606.1115
       9171.7893
       9360.4702
       10483.699
       11693.380
       12149.167
       12001.407
       11747.491
       11441.013
       11294.065
       11041.351
       10447.746
       9873.8747
       9641.5012
       9755.8550
       9869.4497
       10418.201
       11020.918
       11211.401
       11570.837
       12082.761
       12614.157
       12848.581
       12905.603
       12701.752
       12346.503
       11907.233
       11519.189
       11258.838
       11239.949
       11224.894
       11373.706
       11722.683
       12111.260
       12450.855
       12899.022
       13285.153
       13539.549
       13556.668
       13450.777
       13327.487
       13262.801
       12958.608
       12902.995
       12925.355
       12826.193
       12589.059
       12225.824
       12293.679
       12885.009
       13456.171
       13227.018
       12555.523
       11999.039
       11664.912
       11631.214
       11624.155
       11526.498
       11728.795
       11746.301
       11581.106
       11453.305
       11495.560
       11372.243
       10773.099
       9965.2679
       9161.1650
       8568.2681
       8455.3389
       9014.5898
       9951.2756
       10678.600
       11179.331
       11412.299
       11704.804
       12116.841
       12608.358
       12903.979
       12942.509
       12896.080
       12970.396
       12948.376
       12944.361
       13111.002
       13010.057
       12871.618
       12957.979
       12862.076
       12937.540
       13071.230
       13182.508
       13255.155
       13372.639
       13661.734
       14100.546
       14351.354
       14236.290
       13987.782
       14109.957
       14541.082
       14710.471
       14740.869
       14734.118
       14573.947
       14022.306
       13232.801
       12650.219
       12952.517
       13652.824
       14067.417
       14367.854
       14313.807
       14088.298
       13892.925
       13930.410
       13876.416
       13837.671
       14044.139
       14492.093
       14913.957
       14888.053
       14420.072
       13962.822
       13835.040
       14048.501
       13988.544
       13518.988
       13532.325
       13920.074
       14163.925
       14146.366
       14255.903
       14415.543
       14299.052
       13733.851
       12805.754
       11993.020
       12042.772
       12873.860
       13404.200
       13238.432
       13043.472
       13359.521
       14451.079
       15425.090
       15641.736
       15318.652
       14885.587
       14860.273
       15229.695
       15618.301
       15829.118
       15913.008
       15893.089
       15666.887
       15765.351
       15959.101
       15471.720
       14622.766
       13648.987
       12813.412
       12196.319
       11784.965
       12172.019
       13584.159
       14792.554
       15094.507
       15110.742
       15213.015
       15378.094
       15189.938
       15154.812
       15313.020
       15394.837
       14913.535
       14271.341
       14289.882
       14718.729
       15211.892
       15334.445
       15146.001
       14922.670
       14874.759
       14911.602
       14622.856
       13872.471
       13267.786
       13645.818
       14531.908
       14885.902
       14474.251
       13860.780
       13804.227
       14397.618
       14842.679
       14956.098
       15018.935
       15257.767
       15607.560
       15745.936
       15622.105
       15426.691
       15295.637
       15821.371
       16364.023
       16393.945
       16384.906
       16304.875
       16116.672
       16036.059
       16064.420
       15997.717
       16022.578
       16003.473
       15445.536
       14578.623
       13987.705
       14443.003
       15374.439
       15845.112
       15892.193
       15827.920
       15733.196
       15567.562
       15041.845
       14225.667
       13525.894
       12958.231
       12856.062
       13178.252
       13729.345
       14147.019
       14334.410
       14412.053
       14445.521
       14600.821
       14756.588
       14633.646
       14385.606
       14012.210
       14020.815
       14565.471
       14864.039
       15111.795
       15399.007
       15605.214
       15335.321
       14799.898
       14206.358
       13837.532
       14050.494
       14311.428
       14427.572
       14585.970
       14790.714
       14882.331
       15370.894
       15615.615
       15274.608
       14289.909
       13329.663
       12687.228
       12620.386
       13239.166
       13997.440
       14591.636
       15070.307
       15504.938
       15507.138
       15136.353
       14596.313
       14228.725
       14664.902
       15680.526
       16267.187
       16437.080
       16234.954
       15680.641
       14968.864
       14171.630
       13720.002
       13773.063
       14007.756
       14078.087
       13989.157
       13432.497
       12566.602
       12225.062
       12634.509
       13473.559
       14059.418
       13946.153
       13572.092
       13232.436
       12939.013
       12739.740
       13160.280
       13974.932
       14513.787
       14647.705
       14582.119
       14730.702
       14835.580
       15107.460
       15352.099
       15181.831
       15078.011
       15389.674
       15667.161
       15711.326
       15489.282
       15215.305
       14928.462
       14619.379
       14551.511
       14809.734
       15233.174
       15654.206
       15748.913
       15683.398
       15691.334
       15648.179
       15414.346
       15101.535
       14645.942
       13794.911
       12959.058
       12854.889
       13464.145
       14127.676
       14352.532
       14515.004
       14717.681
       14833.129
       14785.072
       14820.296
       15059.890
       15359.153
       15650.206
       15670.970
       15267.870
       14860.524
       14530.025
       14225.129
       13868.329
       13394.207
       13046.665
       12692.674
       12055.379
       11138.995
       9998.9408
       9022.6913
       8549.1396
       9150.3578
       10782.901
       12625.866
       13934.188
       14403.387
       14399.492
       14436.068
       14746.859
       15077.017
       15134.826
       15071.966
       14850.626
       14289.327
       13568.203
       13173.700
       13500.556
       14134.325
       14316.728
       13810.408
       12864.547
       12107.975
       12076.357
       12538.160
       13007.962
       13349.254
       13493.439
       13358.180
       13300.605
       13157.268
       13081.002
       13402.504
       13950.243
       14645.323
       15012.670
       14717.085
       13937.440
       13427.729
       13545.834
       14116.653
       14836.884
       15256.343
       15257.450
       14972.270
       14779.152
       14590.310
       14175.623
       13570.649
       13127.212
       13006.515
       13004.156
       12964.272
       12725.851
       12255.822
       11753.895
       11724.009
       12420.494
       13651.520
       14654.729
       15057.263
       14999.978
       14565.172
       13884.656
       13122.849
       12650.493
       12667.335
       12880.274
       13323.896
       14026.238
       14839.016
       15471.415
       15391.143
       14734.459
       13926.089
       13304.455
       12976.362
       12421.735
       11603.043
       10976.202
       11125.984
       11976.815
       12758.054
       13658.924
       14526.074
       15117.072
       15315.772
       15054.931
       14814.362
       14658.637
       14818.832
       15197.092
       15394.937
       15188.667
       14709.707
       14229.352
       13857.347
       13802.979
       13947.241
       13915.577
       13564.101
       13303.517
       12822.351
       11845.493
       10656.425
       9876.7860
       10153.064
       11231.618
       12226.386
       12596.345
       12380.345
       12082.910
       11836.591
       11720.991
       12225.355
       13237.271
       14102.793
       14525.944
       14775.497
       14945.855
       15153.965
       15255.239
       14969.919
       14406.916
       13532.432
       12759.723
       12684.914
       13197.116
       13796.549
       14013.383
       13890.811
       13766.321
       14038.557
       14592.922
       14750.754
       14275.169
       13638.360
       13159.830
       12702.553
       12556.293
       12721.031
       13100.128
       13470.953
       13645.072
       13585.659
       13001.133
       12264.215
       11521.483
       11131.218
       11453.858
       11909.667
       12202.715
       12649.154
       13254.235
       13811.336
       14168.622
       14222.151
       13953.956
       13307.734
       12850.120
       12970.167
       13251.394
       13343.924
       13072.709
       12433.106
       11921.707
       11774.898
       11681.268
       11288.129
       10406.126
       9462.1735
       9063.5691
       9078.4325
       9338.2596
       9875.2956
       10413.776
       10516.217
       10138.251
       9900.7750
       10021.860
       10290.233
       10616.797
       10715.891
       10665.529
       10614.698
       10604.465
       10657.222
       10856.707
       10767.776
       10035.859
       9098.9809
       8503.0558
       8603.5115
       8924.5737
       9172.2691
       9383.8187
       9602.9510
       9878.6276
       10057.233
       10248.815
       10551.753
       10973.242
       11445.962
       12088.214
       12837.901
       13173.052
       13098.961
       13391.815
       14280.370
       15483.879
       16297.808
       16409.555
       16383.000
       16383.000
       16383.000
       16383.000
       16383.000
       16383.000
       16383.000
       16410.396
       16214.593
       15872.617
       15761.075
       15914.627
       16020.720
       15617.331
       14582.436
       13217.885
       12293.642
       11931.892
       11625.428
       11044.337
       10503.400
       10392.499
       11098.854
       12282.344
       13341.368
       14317.731
       15198.233
       15733.240
       16087.407
       16354.991
       16249.363
       15979.662
       15724.347
       15621.711
       15779.624
       15991.407
       16115.975
       16278.196
       16192.234
       16069.033
       16128.267
       16153.246
       16249.897
       16288.463
       16353.509
       16284.882
       15807.472
       14955.589
       13934.493
       13172.376
       12915.628
       12760.151
       12398.469
       11863.457
       11099.549
       10288.030
       9864.9542
       10160.705
       11016.809
       12056.011
       13026.493
       13661.873
       13787.530
       13667.796
       13691.444
       13998.068
       14500.238
       15145.868
       15678.715
       15809.266
       15635.219
       15486.496
       15448.012
       15473.347
       15618.529
       15984.179
       16322.448
       16397.404
       16383.000
       16443.222
       16031.850
       15076.497
       14199.448
       13263.184
       12760.147
       13042.412
       13784.642
       14687.547
       15361.076
       15474.037
       15218.217
       15136.666
       15178.124
       15308.157
       15536.119
       15974.773
       16341.311
       16429.365
       16168.325
       15756.685
       15285.028
       15079.765
       15221.706
       15371.956
       15803.868
       16286.105
       16404.912
       16383.000
       16383.000
       16406.672
       16189.948
       16219.754
       16366.266
       16366.255
       16385.567
       16383.000
       16383.000
       16383.000
       16405.286
       16258.624
       15833.822
       15355.311
       15348.860
       15761.384
       16147.007
       16201.673
       15782.730
       15509.279
       15573.884
       15785.028
       15603.948
       15723.800
       15997.616
       15891.130
       15598.452
       15299.828
       14879.831
       14366.641
       14004.800
       13816.409
       13764.919
       13968.938
       14383.312
       14870.174
       15298.741
       15577.643
       15841.280
       16034.089
       16046.962
       15931.524
       15893.007
       15693.751
       15688.116
       15624.275
       15501.015
       15619.481
       15251.275
       14044.455
       12448.032
       11001.530
       10032.159
       9979.5449
       10419.656
       11058.852
       11930.631
       13097.631
       14133.991
       14705.120
       14693.495
       14511.229
       14615.748
       14591.339
       14622.123
       14637.867
       14531.062
       14451.954
       14279.860
       14354.374
       14419.668
       14590.562
       14863.465
       15134.763
       15378.511
       15402.614
       15222.578
       15099.016
       14994.745
       14717.499
       14384.050
       14455.499
       14946.980
       15568.857
       16056.294
       16288.425
       16349.396
       16384.240
       16317.410
       16166.441
       16010.687
       15488.320
       14859.444
       14428.430
       14209.500
       14240.905
       14742.393
       15493.151
       16057.360
       15899.969
       15246.987
       14368.080
       13245.164
       12211.550
       11983.134
       12672.985
       13677.856
       14548.602
       14955.571
       14920.281
       14773.609
       14399.943
       14177.689
       14427.136
       14837.868
       15483.202
       15877.305
       16015.051
       16282.599
       16398.846
       16383.328
       16383.000
       16383.000
       16383.000
       16383.000
       16414.115
       16214.738
       15418.205
       14352.979
       13656.604
       13793.438
       14498.893
       15085.796
       15297.592
       15290.622
       15471.347
       15726.390
       16065.386
       16341.387
       16393.994
       16383.000
       16383.000
       16383.000
       16383.000
       16394.312
       16344.477
       15824.067
       15381.802
       15271.498
       15527.194
       15766.129
       16089.741
       16204.720
       16002.542
       15877.141
       15801.316
       15859.264
       16030.729
       15882.400
       15939.825
       16152.524
       16332.006
       16393.361
       16383.000
       16420.225
       16117.335
       15550.324
       15355.675
       15647.528
       16070.254
       16210.250
       16282.074
       16156.034
       15959.251
       15709.422
       15470.750
       15110.114
       14717.513
       14257.069
       14139.487
       14431.023
       14853.899
       15367.195
       15838.178
       16264.032
       16400.566
       16383.807
       16383.000
       16383.000
       16383.000
       16383.000
       16385.325
       16400.787
       16047.973
       15778.454
       15493.451
       15000.382
       14836.371
       14791.908
       14888.161
       15151.773
       15582.149
       16215.081
       16417.119
       16383.000
       16383.000
       16389.756
       16344.942
       16125.579
       15969.544
       16254.731
       16402.480
       16383.271
       16383.000
       16383.737
       16397.652
       16187.137
       16111.126
       16287.654
       16382.538
       16384.925
       16387.469
       16358.342
       16223.229
       15972.621
       15407.962
       14552.275
       13913.777
       13672.034
       13988.820
       14241.096
       14402.607
       14682.070
       14799.140
       14797.376
       14640.696
       14531.168
       14367.163
       14358.526
       14539.842
       14907.545
       15094.956
       14840.476
       14411.768
       14147.936
       14248.885
       14551.265
       15101.668
       15739.121
       15964.064
       16323.194
       15892.802
       15808.175
       15926.368
       16011.696
       15966.837
       15785.035
       15843.503
       16021.389
       16151.165
       16131.919
       15910.519
       15549.748
       15226.196
       15146.033
       15241.736
       15368.219
       15664.507
       16076.002
       16347.034
       16393.007
       16383.000
       16383.000
       16383.000
       16383.000
       16383.000
       16383.000
       16383.000
       16383.000
       16383.000
       16383.000
       16383.000
       16383.000
       16383.000
       16383.000
       16383.000
       16383.000
       16383.000
       16383.000
       16420.948
       16056.771
       15571.579
       15416.115
       15077.156
       14800.345
       14729.966
       14980.592
       15372.377
       15875.485
       16308.009
       16398.931
       16383.221
       16383.000
       16383.000
       16383.000
       16383.000
       16383.000
       16383.000
       16383.000
       16383.000
       16383.000
       16405.723
       16185.393
       15856.509
       15664.290
       15585.741
       15663.206
       15917.652
       16095.757
       16323.437
       16393.014
       16383.209
       16383.000
       16383.000
       16400.399
       16230.372
       15965.828
       15711.681
       15829.991
       16094.457
       16144.212
       16183.694
       16287.080
       16370.973
       16386.069
       16383.000
       16383.000
       16383.000
       16383.000
       16383.000
       16383.000
       16383.000
       16383.000
       16383.000
       16383.000
       16383.000
       16383.000
       16383.000
       16383.000
       16383.000
       16383.000
       16383.000
       16383.000
       16383.000
       16383.000
       16383.000
       16383.000
       16383.000
       16383.000
       16383.000
       16383.000
       16383.000
       16383.000
       16383.000
       16383.000
       16383.000
       16383.000
       16383.000
       16383.000
       16383.000
       16383.000
       16383.000
       16383.000
       16383.000
       16383.000
       16383.000
       16383.000
       16383.000
       16383.000
       16383.000
       16383.000
       16383.000
       16383.000
       16383.000
       16383.000
       16383.000
       16383.000
       16383.000
       16383.000
       16383.000
       16383.000
       16383.000
       16383.000
       16383.000
       16383.000
       16383.000
       16383.000
       16383.000
       16383.000
       16383.000
       16383.000
       16383.000
       16383.000
       16388.589
       16334.130
       16165.914
       15933.522
       15632.525
       15397.601
       15350.384
       15258.155
       15085.607
       14800.440
       14563.554
       14381.950
       14600.304
       14926.274
       15023.600
       15050.609
       15047.703
       15189.063
       15484.697
       15934.866
       15995.052
       15720.338
       15376.086
       15167.326
       15139.503
       15173.304
       14978.522
       14689.270
       14684.810
       14796.576
       15324.950
       16168.152
       16397.651
       16385.757
       16383.000
       16383.000
       16383.000
       16383.000
       16383.000
       16383.446
       16387.652
       16264.380
       16113.012
       16142.321
       16291.249
       16376.765
       16385.168
       16383.000
       16383.000
       16383.040
       16403.502
       16123.014
       16077.608
       16054.018
       16180.275
       16102.747
       16198.541
       16071.706
       15941.328
       15942.011
       16066.347
       15823.466
       15464.097
       14940.650
       14714.433
       14801.009
       15221.490
       15569.950
       15827.892
       15860.280
       15753.665
       15700.454
       15852.685
       15876.747
       15812.915
       15605.461
       15488.494
       15392.254
       15384.028
       15362.440
       15149.927
       15302.385
       15645.600
       16248.008
       16328.016
       16356.218
       16381.844
       16383.384
       16383.015
       16383.000
       16383.000
       16383.000
       16383.000
       16383.000
       16383.000
       16383.000
       16383.000
       16383.000
       16383.049
       16402.274
       16128.779
       15776.831
       15731.662
       15574.511
       15287.913
       15118.663
       15205.055
       15428.259
       15737.425
       16018.638
       16342.388
       16388.312
       16383.482
       16306.080
       16256.127
       16363.613
       16385.585
       16385.841
       16362.470
       16044.423
       15584.173
       15182.860
       15317.084
       15521.381
       16033.602
       16334.841
       16376.697
       16385.979
       16333.417
       16216.368
       16339.331
       16255.175
       16241.781
       16272.082
       16307.165
       16360.871
       16382.379
       16384.357
       16386.638
       16097.192
       15919.960
       15718.581
       15412.551
       15226.673
       15014.162
       14815.659
       14588.631
       14543.633
       14820.084
       15040.852
       15138.227
       15065.280
       14876.770
       14911.769
       14863.958
       14882.877
       14832.275
       14694.916
       14685.248
       14593.488
       14722.474
       14966.371
       15145.722
       15230.916
       15534.571
       15539.675
       15739.617
       15753.339
       15866.727
       15690.292
       15680.907
       15560.549
       15309.382
       15076.892
       14845.493
       14626.961
       14682.946
       14769.852
       14950.105
       15138.942
       15103.386
       15119.289
       14978.525
       14711.498
       14541.836
       14695.492
       14673.373
       14803.871
       14720.769
       14661.581
       14616.998
       14753.105
       15004.009
       15069.009
       15045.840
       14738.634
       14494.021
       14277.527
       14450.672
       14611.514
       14865.676
       14831.053
       15010.956
       14807.641
       14899.171
       15001.982
       15023.290
       14822.691
       14643.531
       14566.285
       14710.331
       14975.201
       14984.196
       15085.158
       14951.301
       14999.498
       15120.835
       15308.949
       15547.301
       15621.466
       15562.093
       15854.947
       15523.236
       15233.003
       15112.672
       14916.850
       14872.269
       15039.472
       14988.660
       14960.521
       14674.612
       14695.885
       14678.521
       14871.475
       15286.121
       15119.221
       15124.227
       14927.041
       14918.534
       14830.680
       14902.305
       15062.816
       15028.974
       14866.090
       14765.605
       14576.552
       14380.670
       14629.064
       14663.607
       14875.046
       15046.964
       15218.452
       15117.717
       15045.967
       14932.381
       14846.090
       14867.041
       15010.308
       15030.412
       15129.323
       14992.665
       14787.588
       14712.786
       14760.628
       14540.878
       14647.437
       14891.436
       14904.005
       14871.874
       15007.123
       14969.980
       15008.099
       14693.945
       14488.395
       14495.800
       14633.842
       14688.149
       14868.482
       15236.965
       14978.451
       14998.057
       14718.443
       14597.149
       14353.082
       14370.522
       14405.494
       14427.062
       14500.648
       14483.581
       14508.149
       14591.789
       14499.643
       14470.502
       14263.945
       14074.963
       13817.706
       13773.542
       13944.118
       14079.232
       13963.878
       14035.356
       13833.827
       13933.466
       13961.052
       14110.938
       14277.863
       14431.675
       14529.681
       14751.393
       14390.405
       14245.673
       14141.933
       14140.050
       14102.744
       14170.445
       14067.635
       13963.110
       13788.618
       13307.365
       13092.397
       13178.108
       12970.501
       13088.335
       12946.986
       12979.309
       13193.138
       13380.497
       13446.790
       13662.282
       13859.792
       13778.282
       13789.612
       13832.881
       13923.454
       13981.220
       14144.364
       14186.648
       14264.149
       14149.710
       13672.355
       13448.011
       13444.638
       13459.039
       13566.756
       13529.087
       13604.712
       13406.591
       13457.863
       13645.242
       13835.020
       14072.361
       14270.082
       14425.849
       14526.185
       14479.941
       14660.083
       14519.139
       14357.779
       14269.391
       14198.981
       14166.895
       14030.361
       13984.944
       13881.993
       13606.100
       13554.440
       13742.682
       13785.764
       13638.944
       13634.823
       13451.816
       13077.666
       12996.715
       12392.111
       11939.057
       11799.037
       11694.009
       11815.389
       11958.104
       12289.618
       12532.676
       12866.300
       13053.251
       13236.864
       13365.782
       13464.348
       13524.723
       13464.540
       13368.711
       13368.061
       13205.554
       13168.462
       13263.762
       13417.023
       13505.638
       13477.991
       13700.349
       13686.229
       13966.131
       13900.555
       14046.913
       14025.085
       13994.782
       13561.248
       13343.644
       13090.615
       13117.445
       12929.449
       13047.469
       12920.947
       12825.943
       12913.658
       12917.971
       12883.768
       12839.705
       12969.289
       12948.128
       13201.021
       13399.410
       13457.378
       13364.380
       13423.612
       13290.275
       13266.897
       13352.095
       13300.261
       13413.434
       13392.028
       13533.014
       13435.966
       13404.555
       13194.535
       13195.000
       13195.000
       13195.000
       13195.000
      370.133
      374.267
      377.133
      376.933
      376.867
      377.033
      376.367
      377.067
      376.700
      377.533
      376.833
      376.467
      376.367
      376.767
      376.667
      376.267
      375.733
      375.633
      375.300
      375.233
      376.000
      375.900
      375.233
      375.267
      374.867
      375.433
      375.333
      374.533
      374.767
      374.333
      373.800
      374.200
      374.433
      375.267
      374.033
      373.833
      373.767
      373.667
      374.167
      373.800
      373.800
      373.867
      372.900
      372.600
      373.000
      373.233
      373.167
      372.967
      372.567
      375.833
      345.867
      349.167
      349.833
      350.967
      351.367
      350.767
      350.933
      351.467
      350.933
      350.300
      350.533
      350.500
      350.500
      351.200
      350.300
      350.633
      350.067
      350.233
      350.167
      350.933
      349.533
      349.633
      349.667
      350.033
      350.167
      349.633
      349.500
      349.667
      349.733
      349.967
      349.533
      350.267
      349.800
      350.500
      349.467
      349.367
      349.433
      349.167
      349.700
      349.300
      348.933
      349.267
      349.400
      349.300
      348.800
      349.600
      348.300
      349.033
      350.433
      349.467
       536.76349
       549.42398
       626.07354
       615.68161
       471.01546
       547.46014
       506.80670
       596.77116
       642.77906
       521.29491
       547.47382
       593.58242
       534.81807
       506.71878
       627.01338
       537.89170
       576.16230
       622.23352
       545.75404
       718.54063
       555.27682
       597.03827
       519.67769
       546.48122
       559.07874
       602.00004
       559.67226
       498.57005
       542.16240
       547.72488
       561.49393
       599.06577
       620.40283
       734.32716
       645.42074
       631.02426
       536.16873
       598.03723
       698.24339
       572.81833
       588.22035
       551.01292
       611.16489
       548.48518
       562.81121
       510.99368
       534.68243
       575.41919
       550.04778
       556.76306
       621.92410
       556.80182
       560.96226
       649.37488
       539.64023
       588.34637
       536.81728
       611.26170
       604.56907
       512.99014
       600.09621
       588.57292
       561.66052
       663.95280
       579.85119
       543.61407
       684.65717
       659.34526
       646.86529
       669.00368
       573.56671
       719.09820
       645.95319
       479.58034
       611.76552
       635.51637
       633.58360
       593.77021
       633.02014
       528.91445
       506.57067
       614.82880
       793.64323
       714.26743
       564.57746
       638.16042
       613.45857
       594.67258
       731.55927
       657.87327
       604.17684
       604.52341
       555.38015
       563.73588
       570.25504
       513.02918
       636.50658
       614.82886
       463.45264
       513.79984
       561.28495
       520.97507
       628.61091
       553.98244
       616.79124
       695.45122
       532.65204
       503.59984
       538.70450
       521.93335
       506.31496
       548.29572
       667.03332
       654.86753
       691.60032
       619.94656
       592.39047
       575.51009
       567.41139
       559.54772
       563.74649
       546.95275
       627.49896
       624.83648
       475.35704
       560.28312
       587.30386
       639.22354
       590.14053
       584.98398
       532.28992
       541.99580
       616.43569
       581.56705
       568.43825
       674.26831
       541.88840
       616.46158
       623.87408
       695.42681
       799.18637
       568.16295
       558.53337
       544.18456
       581.62708
       481.69139
       644.96085
       685.47480
       503.99429
       624.60777
       578.14886
       509.33691
       537.93641
       610.38416
       532.23715
       527.16027
       476.00681
       509.28053
       600.53302
       646.07753
       564.30764
       687.47455
       723.84391
       531.67870
       554.48063
       563.68132
       533.35895
       526.10791
       595.02704
       628.93293
       588.17525
       594.11947
       645.92407
       551.38240
       525.09877
       577.60199
       631.15647
       547.67900
       513.63225
       686.43976
       872.13375
       520.23905
       596.46688
       550.36438
       570.54521
       584.57786
       526.28069
       577.42946
       526.86315
       630.25375
       558.24534
       572.29591
       542.29057
       500.69267
       512.02832
       582.79214
       662.97219
       547.15306
       593.79700
       597.91950
       567.80157
       611.68413
       611.26799
       797.90318
       954.62548
       643.04917
       587.84252
       553.72576
       551.11334
       541.17927
       537.36343
       560.00830
       608.59314
       584.30772
       570.90573
       511.64681
       521.16461
       554.37777
       493.61942
       606.06046
       639.26255
       555.64195
       614.33278
       612.13824
       483.25841
       577.57122
       593.02876
       525.38853
       551.74788
       538.90636
       522.23780
       568.03445
       641.50762
       706.06431
       600.48755
       555.44562
       608.54068
       621.33977
       545.22174
       495.33925
       573.65916
       665.27546
       666.76180
       615.47270
       494.94662
       539.27494
       657.12804
       608.54843
       567.05672
       484.96844
       534.17834
       593.46537
       648.08000
       550.02218
       481.74700
       558.77367
       565.84809
       562.87750
       707.15555
       698.02165
       613.74033
       641.39307
       663.57210
       601.05754
       533.74301
       642.97711
       631.22272
       593.30317
       556.98646
       599.68415
       574.00970
       593.08877
       640.01981
       655.52121
       640.39279
       608.12926
       596.79289
       592.03052
       644.29472
       609.85000
       527.49072
       562.01135
       593.56906
       588.94880
       556.15354
       534.21431
       699.82831
       714.15995
       622.27721
       578.47119
       567.66309
       629.18280
       550.11622
       622.26105
       632.85690
       520.92094
       599.47549
       660.82761
       524.47431
       508.23959
       571.08635
       536.93477
       616.08189
       573.33523
       501.16768
       587.90118
       646.01556
       645.18390
       636.76007
       574.28561
       578.00759
       647.07155
       592.45213
       554.20397
       543.73144
       568.53044
       690.80360
       612.98780
       509.10524
       547.19493
       546.89220
       545.99677
       610.63273
       642.07800
       619.06962
       604.87075
       523.15546
       578.42308
       578.53991
       521.99436
       690.35897
       798.29159
       649.04561
       566.26540
       524.36636
       544.50724
       527.08809
       571.37628
       646.62079
       633.57505
       600.47406
       586.44287
       660.26755
       599.44385
       557.62316
       620.58101
       631.61271
       599.63380
       527.47260
       537.85271
       594.29091
       593.69780
       529.74592
       558.38221
       557.84390
       530.13645
       527.70287
       543.09081
       538.16261
       461.71980
       513.57933
       559.59379
       543.39574
       583.92256
       540.18017
       564.88902
       627.09541
       531.22894
       515.51016
       707.20002
       635.12339
       465.32445
       648.41031
       757.33367
       646.46375
       594.48361
       612.73508
       591.76737
       552.70049
       710.54857
       764.08557
       605.25709
       544.58705
       579.96865
       636.18140
       683.31388
       620.26931
       560.45213
       595.42942
       539.51887
       478.16921
       516.58346
       605.01590
       667.73887
       607.28554
       526.84557
       539.97854
       579.23299
       576.40867
       591.67911
       538.28376
       521.56322
       597.95535
       602.79819
       626.36406
       651.82852
       593.40558
       547.12389
       569.78741
       662.87929
       608.26970
       556.83641
       572.93930
       545.16553
       610.52391
       667.94031
       602.59022
       533.08313
       540.96027
       528.84534
       569.88893
       589.03689
       553.82838
       547.46070
       547.18306
       556.93705
       574.68874
       565.63099
       518.80607
       564.66175
       579.76302
       603.57243
       598.21662
       570.96783
       599.25010
       536.27108
       559.37299
       688.11077
       650.60377
       550.46939
       546.88606
       535.01591
       600.59685
       663.77748
       652.69446
       599.98982
       608.60310
       616.79545
       593.18309
       629.78259
       675.13065
       611.84010
       617.79322
       596.38392
       493.28567
       581.21312
       666.31084
       608.71136
       564.24590
       521.47304
       506.77443
       627.25729
       555.95380
       499.43363
       623.21032
       662.48351
       628.90825
       582.27591
       537.01895
       556.48022
       603.58258
       544.56123
       542.56321
       589.40073
       621.04827
       562.24363
       627.64040
       656.31440
       565.54487
       552.94754
       564.35906
       546.70381
       606.38241
       596.07616
       621.79159
       552.69129
       572.17991
       600.15618
       751.69004
       697.70012
       571.38191
       727.77230
       686.50134
       607.96593
       632.15188
       591.66003
       506.75135
       571.30858
       595.19328
       488.33320
       639.93063
       632.74822
       600.07351
       660.69132
       585.80663
       488.39925
       511.14670
       610.80307
       534.31317
       591.64309
       599.00461
       666.11111
       694.02445
       602.56854
       588.04285
       628.69357
       652.92315
       567.37574
       516.69166
       658.11916
       637.58726
       533.98701
       619.97700
       735.14876
       634.64075
       595.61891
       517.81848
       632.72876
       613.61511
       621.80627
       678.36419
       634.52841
       553.21544
       552.43812
       616.69890
       600.60710
       568.84806
       631.31457
       580.18701
       487.27557
       512.60139
       534.31418
       642.79222
       624.22833
       560.85604
       601.87171
       600.37317
       591.30784
       549.57098
       540.39031
       664.48318
       686.51032
       642.19984
       574.16176
       561.23117
       577.02628
       601.74607
       582.61922
       633.56125
       602.13127
       578.38202
       619.74122
       571.02299
       567.25315
       651.50401
       573.90728
       602.02131
       590.26305
       508.49654
       589.73753
       656.05180
       610.21332
       597.94761
       550.07140
       590.96137
       673.18008
       546.68265
       577.83654
       619.23054
       709.98414
       658.46598
       618.20233
       616.34085
       597.81145
       567.83970
       537.67820
       578.14400
       593.95713
       539.93472
       531.39872
       694.76418
       661.06389
       624.75299
       607.80561
       575.74692
       533.06446
       665.27731
       703.03283
       597.81073
       544.70749
       490.66933
       534.27948
       657.93731
       650.74111
       565.33503
       499.58423
       688.32664
       616.43977
       539.58441
       624.70215
       644.73489
       766.19998
       637.23104
       549.20405
       549.22652
       587.32678
       609.50188
       564.28448
       620.49575
       556.68539
       557.91966
       597.55105
       628.76163
       580.46228
       561.94472
       593.24214
       577.05546
       507.40591
       516.72611
       531.43011
       622.11225
       578.21822
       551.56454
       597.13466
       593.66658
       557.24196
       536.98002
       629.78519
       637.61952
       617.23803
       644.55996
       626.73256
       568.42067
       569.21061
       732.85397
       726.32698
       699.76257
       678.58383
       590.98415
       526.66094
       647.78050
       621.65479
       642.15645
       583.81200
       569.51459
       595.04615
       569.25903
       575.48833
       596.83813
       539.05246
       581.76023
       586.88050
       532.03274
       589.06438
       584.37127
       538.87906
       551.87925
       754.28452
       649.76352
       557.46681
       673.26749
       557.16947
       602.65737
       722.28370
       624.14942
       590.37203
       583.46253
       688.11415
       605.54147
       487.69045
       623.69051
       551.52065
       503.31987
       565.54829
       523.66052
       569.60859
       672.30027
       587.23303
       623.24018
       716.31991
       664.12651
       526.86359
       597.38995
       568.47121
       580.76614
       673.53778
       602.20032
       599.56512
       623.31463
       684.23870
       693.23673
       593.59310
       622.45202
       611.88255
       573.05063
       716.32459
       725.46405
       626.20163
       603.52076
       554.82027
       589.90401
       637.22146
       652.97002
       611.49377
       636.26997
       645.36063
       641.98572
       580.27040
       543.21547
       553.34052
       662.69019
       612.89789
       571.37468
       620.73808
       573.70091
       562.08930
       523.68791
       573.95566
       623.61901
       581.24356
       560.82157
       622.57016
       543.13998
       680.23964
       626.81202
       567.77161
       578.15236
       625.76637
       612.98049
       641.67253
       534.39539
       588.77463
       678.76620
       651.75835
       551.58576
       644.01837
       676.93720
       624.51758
       551.55420
       521.92558
       470.10750
       584.70100
       657.21041
       709.99531
       645.29687
       652.00640
       515.93897
       502.44146
       549.74498
       530.73711
       495.77304
       594.08780
       649.69932
       564.97073
       533.88305
       666.30677
       671.30910
       543.96849
       542.83823
       621.37480
       648.93304
       685.89451
       622.87459
       592.62765
       549.18856
       504.55543
       561.01767
       620.21926
       683.86964
       620.86090
       544.48484
       580.24139
       616.91215
       560.01285
       635.98394
       612.97028
       611.18083
       672.40673
       672.74452
       678.03195
       627.55930
       534.77600
       565.32110
       641.06515
       585.25443
       680.70588
       632.57677
       596.90324
       596.07407
       677.52655
       628.12318
       556.90698
       567.98325
       548.55774
       658.13245
       582.48142
       560.72766
       613.83204
       629.65997
       697.35132
       563.21562
       592.70941
       641.01766
       580.99565
       608.43240
       632.80281
       594.08148
       581.96796
       607.26957
       599.26450
       590.22805
       785.58251
       670.36436
       641.47216
       668.07367
       596.77180
       613.31526
       668.25671
       650.85620
       552.94407
       537.96569
       530.51884
       628.02258
       632.40859
       598.75965
       612.69637
       733.82190
       620.90950
       544.55722
       655.82673
       695.74804
       711.63765
       635.38663
       673.11535
       586.69560
       551.65541
       706.31746
       650.27612
       593.87183
       607.83652
       661.89651
       646.71320
       550.28458
       590.00855
       634.50818
       573.66981
       506.90836
       585.06260
       571.68267
       532.34895
       626.92739
       541.02170
       567.44548
       544.12382
       558.00198
       580.96644
       622.51595
       672.77961
       579.60559
       497.00453
       590.43093
       622.05191
       551.91768
       584.50334
       587.79937
       532.29942
       590.48465
       533.33910
       604.95250
       612.58302
       616.28218
       630.60479
       592.94388
       558.54725
       706.08110
       733.60762
       620.67985
       641.83312
       633.36193
       545.09192
       593.85729
       575.45619
       654.54718
       622.80935
       660.54514
       605.34676
       620.16405
       608.05402
       793.30206
       719.46891
       613.41044
       650.15763
       649.50989
       622.98040
       585.34918
       601.69498
       599.89080
       573.16730
       561.29695
       584.73653
       551.65486
       632.78997
       613.59759
       603.28205
       595.84124
       552.52665
       591.90750
       567.35271
       570.19470
       555.32523
       606.61693
       549.40153
       662.12346
       681.27553
       543.18201
       635.11793
       550.60441
       723.41196
       975.68466
       708.97562
       527.71721
       570.70662
       570.68669
       696.23986
       659.87268
       667.84818
       656.33980
       685.24524
       564.57693
       667.21740
       671.94688
       751.22466
       700.15343
       631.94327
       625.68074
       587.48841
       618.18474
       616.08017
       579.57328
       691.14959
       671.31090
       671.11516
       585.43253
       649.87984
       624.52285
       565.11231
       657.51718
       735.99583
       617.00221
       703.94118
       648.82932
       608.97063
       573.45754
       618.32347
       599.00061
       547.28315
       638.96721
       634.87023
       779.67410
       675.01098
       647.09538
       660.65443
       635.85000
       670.37163
       805.33319
       682.62787
       618.85893
       692.07150
       665.57816
       623.83932
       952.75009
       745.46593
       571.32221
       685.69835
       655.76296
       597.21724
       664.55931
       655.01277
       609.82307
       721.37618
       641.00353
       617.39744
       560.29307
       614.76087
       647.76486
       610.28416
       553.01563
       712.10989
       752.48106
       664.77137
       669.89476
       680.17267
       713.00185
       664.49379
       652.36522
       579.22171
       525.52516
       691.03381
       673.71953
       645.02897
       668.46545
       600.31446
       676.75213
       596.52033
       617.76281
       627.91303
       598.32606
       628.95913
       704.52666
       939.09643
       663.69326
       698.78061
       730.69395
       748.61119
       700.92493
       609.17805
       670.61906
       638.90054
       611.57286
       710.92812
       794.63068
       703.57408
       667.86884
       664.32227
       572.37458
       613.61610
       607.21848
       690.06175
       635.40550
       594.62898
       624.92245
       568.05235
       643.72533
       643.46126
       582.26462
       645.79008
       681.10313
       639.17819
       583.82220
       510.87709
       684.47003
       695.16646
       588.49703
       598.82179
       666.11140
       609.06654
       706.79137
       729.25377
       617.72440
       658.89220
       598.06834
       589.91469
       727.02045
       637.40694
       641.49698
       737.27721
       703.04467
       683.74133
       594.98515
       579.95390
       606.73154
       686.62061
       746.52408
       633.38111
       610.09939
       556.42493
       590.89958
       679.72843
       611.24892
       852.12785
       695.08045
       608.09402
       720.69439
       667.04760
       546.33228
       571.44112
       655.37114
       746.54082
       679.46325
       698.41224
       665.51989
       644.77320
       621.50442
       665.95146
       644.23846
       639.57771
       656.07480
       603.43130
       789.31059
       630.16470
       571.85311
       579.23144
       586.18301
       589.71850
       947.63112
       820.16519
       568.69387
       539.30554
       581.09468
       564.96504
       554.71460
       727.60820
       667.47985
       682.29340
       684.69009
       576.16854
       602.33596
       726.12117
       691.30743
       633.13206
       718.11879
       652.41439
       591.20082
       639.81210
       691.54214
       583.29859
       708.19828
       717.82695
       692.13542
       615.71406
       696.98581
       619.30482
       636.28637
       621.68715
       654.31376
       705.21477
       598.42247
       663.89186
       592.24004
       605.81578
       621.89321
       790.61003
       676.96647
       602.61035
       711.22812
       636.21474
       537.99292
       709.20398
       620.21223
       572.29426
       571.87292
       600.08819
       638.57025
       633.73695
       593.21395
       563.04085
       717.67294
       656.95330
       650.67515
       741.43584
       612.44718
       613.88328
       604.11146
       592.35764
       739.65095
       594.15492
       562.55519
       583.55569
       666.12986
       724.75619
       589.17720
       603.17200
       635.58326
       585.85689
       667.73820
       634.60954
       680.74819
       581.35371
       591.18827
       640.02212
       700.30554
       661.42121
       711.15604
       584.57943
       625.83123
       607.57493
       704.81120
       721.04021
       614.78683
       648.65454
       633.26199
       595.68911
       673.51357
       610.06544
       527.45218
       616.68216
       641.33860
       689.47195
       711.63319
       619.99370
       624.84152
       635.38772
       592.10450
       657.54222
       665.59573
       580.22636
       620.60879
       602.49915
       630.51543
       528.78623
       666.23636
       652.13243
       697.78001
       686.84101
       610.52350
       718.96592
       638.87966
       601.78651
       579.04933
       701.02004
       687.84435
       636.31393
       641.50861
       659.04388
       569.66896
       726.03627
       675.85752
       623.97807
       641.67440
       704.36489
       750.63582
       684.82756
       605.56618
       590.23684
       582.00309
       672.85916
       661.43986
       784.08709
       730.33152
       685.98756
       627.15852
       678.92711
       570.29652
       628.91719
       619.61969
       652.16863
       671.83815
       686.73241
       718.60952
       877.74977
       763.08864
       580.69580
       601.01451
       662.54439
       651.55665
       714.44652
       663.10976
       630.18282
       771.21489
       709.43233
       605.76543
       786.89529
       655.65377
       630.01878
       618.44836
       770.28381
       638.31363
       592.97710
       674.70696
       687.40559
       781.47104
       611.37308
       600.36082
       651.33026
       663.71799
       660.66487
       672.30963
       641.01854
       701.56289
       672.07982
       621.98428
       736.15030
       664.58730
       547.78137
       593.06240
       679.47127
       617.83476
       578.86906
       686.66609
       687.58288
       545.82177
       576.88400
       654.36196
       687.69926
       743.40701
       772.18346
       725.91495
       703.06297
       874.07646
       702.89615
       591.03384
       614.74034
       651.58564
       712.96232
       589.19184
       604.22866
       643.45361
       651.07735
       629.02527
       609.45184
       599.00989
       594.02221
       693.64047
       697.09271
       667.18879
       701.29460
       708.37554
       706.74512
       638.07271
       647.05465
       617.55952
       588.14102
       683.46236
       666.20229
       749.28332
       711.67563
       617.80038
       860.59788
       687.64410
       563.78133
       619.45429
       722.58747
       757.87984
       738.45215
       709.77806
       706.41479
       646.09139
       601.76224
       735.97375
       614.23165
       651.56266
       840.50802
       739.63269
       670.63687
       665.55932
       661.29710
       797.22449
       714.01266
       696.97938
       650.93445
       635.02571
       589.99670
       649.10725
       721.26327
       701.05126
       674.02887
       664.50281
       617.96675
       691.31676
       754.29113
       664.51091
       659.51845
       609.83985
       648.08353
       605.91069
       683.18261
       733.56669
       662.26328
       659.82710
       705.34395
       689.63217
       581.37160
       698.52891
       636.60723
       552.75028
       607.97862
       565.62177
       554.32575
       723.89857
       883.58821
       746.44590
       666.05598
       717.30719
       789.94058
       671.25284
       685.79689
       814.85305
       685.20717
       638.11438
       633.45089
       661.76289
       620.62439
       677.67710
       650.48905
       789.84073
       711.58577
       593.29965
       638.44386
       632.87714
       710.74555
       649.93010
       690.23786
       702.43623
       719.46807
       640.23260
       643.74872
       709.29608
       657.94834
       737.53915
       770.12360
       610.96704
       636.96929
       603.63124
       636.95669
       638.33720
       688.08936
       619.22317
       656.21519
       587.25155
       586.60018
       656.76813
       690.14023
       731.33771
       682.51821
       726.39521
       586.95443
       576.38181
       553.36555
       614.41627
       650.59512
       635.73559
       670.24151
       712.25884
       763.51427
       780.55636
       645.10629
       713.03064
       630.84405
       593.72164
       621.64808
       634.49077
       563.99043
       618.16914
       591.97529
       604.31790
       715.10596
       732.96350
       679.36468
       718.33908
       616.21837
       582.68520
       693.31066
       793.77420
       730.25221
       581.59436
       795.71974
       709.46558
       612.56809
       799.38538
       724.42820
       652.84629
       648.90644
       648.65841
       642.85781
       812.81656
       629.04399
       631.73106
       798.27502
       644.16087
       580.00538
       664.54224
       964.51205
       769.16762
       673.29339
       645.33885
       567.44709
       771.09733
       760.93988
       764.54357
       658.45030
       711.33698
       617.15238
       624.54253
       597.42725
       714.81081
       695.54347
       620.81165
       653.24868
       731.37616
       627.37042
       590.37185
       779.00266
       793.16021
       692.84215
       724.28976
       578.10883
       804.57520
       753.26495
       703.05407
       606.64232
       541.30183
       618.11837
       651.60275
       593.81276
       745.01732
       688.15806
       613.38696
       686.46068
       585.86083
       608.65191
       594.52475
       703.43044
       770.53614
       601.18727
       577.14750
       730.67272
       726.36989
       646.56623
       602.44602
       655.68245
       705.72304
       633.32214
       682.18349
       657.11768
       676.30989
       787.21032
       718.16598
       827.32706
       748.71277
       608.42691
       780.32358
       733.29605
       656.51587
       622.17761
       639.39808
       614.81311
       651.06070
       829.80063
       647.60664
       651.50688
       636.78756
       695.20426
       638.61949
       655.56865
       669.29625
       1667.7632
       1104.1637
       617.09447
       602.77292
       649.35712
       590.73745
       621.46268
       668.78471
       598.32085
       693.26176
       623.91821
       609.58698
       753.53623
       622.42375
       676.65272
       582.11685
       637.25900
       740.59970
       739.93933
       711.05345
       677.05742
       595.05679
       614.98313
       658.83521
       663.37861
       619.27455
       609.75777
       620.00340
       635.89278
       576.25042
       615.94387
       700.61060
       670.62029
       834.80054
       676.83340
       599.05392
       577.49356
       671.01079
       711.46162
       642.58329
       594.72686
       787.38719
       805.17246
       642.74430
       630.31225
       717.39030
       665.16991
       584.19682
       746.91979
       692.00445
       658.25418
       742.37279
       699.40111
       701.58076
       720.39961
       650.08479
       628.25473
       668.56018
       671.99320
       677.21122
       685.94688
       596.78548
       707.42982
       718.13377
       688.80680
       643.52355
       726.48778
       701.93854
       650.46165
       725.24914
       661.70366
       651.73372
       781.06836
       671.13519
       572.72807
       695.91112
       725.03992
       618.83980
       651.01534
       636.89129
       573.88089
       618.39521
       757.07176
       628.16561
       654.71226
       781.61623
       689.90299
       668.08064
       688.21279
       649.41395
       654.18138
       674.38963
       716.01778
       653.84676
       606.06065
       687.44527
       734.61330
       656.32988
       593.95208
       659.46734
       689.44435
       674.78648
       658.64669
       680.48160
       656.97907
       634.85042
       610.07336
       704.16405
       614.67607
       619.61804
       863.05614
       716.15325
       657.61340
       834.32381
       642.15931
       655.77606
       729.33462
       601.96591
       639.79715
       698.97162
       627.89352
       716.02957
       680.07035
       729.51719
       759.13242
       772.12420
       653.14706
       581.35493
       636.13900
       702.10786
       726.52994
       623.02343
       602.73135
       588.84933
       677.77641
       779.95376
       684.23723
       663.54745
       631.93209
       663.76548
       635.52725
       540.35264
       674.37699
       653.87339
       718.86678
       687.80071
       582.96150
       663.64506
       668.10143
       665.39214
       679.90226
       794.61690
       667.88351
       618.73534
       652.02344
       573.96463
       670.44424
       660.53302
       627.96889
       611.29192
       601.97247
       715.37214
       649.33830
       576.42888
       601.38888
       672.16509
       712.48699
       693.63380
       730.08951
       662.96223
       614.73439
       672.18028
       685.67666
       690.00407
       711.63713
       832.42927
       745.43017
       676.41696
       700.62877
       787.07303
       635.93610
       658.48113
       659.94388
       657.13520
       679.62782
       696.15076
       624.56392
       633.18979
       668.04924
       731.72394
       752.12708
       723.10501
       738.54599
       699.66998
       723.53809
       720.06490
       689.84207
       643.10413
       644.31729
       749.92479
       717.89254
       676.29894
       715.36942
       671.34239
       597.30057
       712.05542
       778.40539
       753.70334
       751.62115
       606.13778
       689.83791
       687.06767
       716.68247
       765.64689
       648.56591
       681.65165
       701.62613
       677.24161
       818.53962
       801.41784
       693.31928
       646.69963
       709.28987
       855.17592
       865.54593
       667.05018
       727.94634
       641.84550
       652.24022
       706.41191
       724.61845
       705.47506
       695.08320
       619.26405
       896.88181
       783.37119
       654.36338
       684.25990
       624.51917
       674.69314
       690.66985
       713.62816
       700.83158
       654.62370
       674.88660
       819.68982
       692.73477
       682.04495
       715.04229
       717.00511
       727.75087
       803.04862
       653.51535
       617.89305
       741.51132
       685.43809
       617.47571
       699.32612
       747.54425
       594.72834
       633.22477
       736.56261
       645.95001
       599.16129
       631.63777
       677.21682
       641.70044
       694.01672
       705.03352
       608.16225
       770.43155
       714.67659
       726.65297
       629.91041
       741.88524
       814.57765
       639.73248
       605.25208
       645.82912
       600.40581
       691.65510
       692.90033
       861.46891
       783.86474
       618.64359
       646.52711
       708.49541
       763.20053
       633.53798
       645.62867
       674.53942
       614.17935
       600.99547
       651.87323
       757.18080
       649.21232
       582.35480
       643.26530
       782.64639
       746.22767
       750.56738
       638.44182
       746.23480
       832.80119
       715.19572
       689.76957
       587.04538
       560.79730
       668.96929
       632.46321
       697.82838
       650.31996
       672.63727
       797.71990
       687.14108
       602.19830
       631.32392
       612.80807
       693.19944
       678.76848
       655.88200
       659.49855
       804.71078
       693.31604
       706.40965
       666.25235
       685.26116
       683.36335
       684.46281
       605.91960
       614.11042
       619.21180
       646.54795
       728.11265
       672.28060
       707.87763
       763.52603
       815.29076
       705.28543
       783.46938
       728.56074
       811.91566
       641.78147
       619.38829
       655.98434
       686.40174
       565.59299
       610.24441
       717.73279
       780.48595
       669.37786
       598.11191
       698.56684
       653.24995
       636.38859
       614.28220
       778.59635
       711.96999
       724.05412
       689.11881
       739.18169
       617.04819
       642.31838
       643.31296
       717.89631
       700.63455
       615.89912
       599.89736
       712.74453
       599.17094
       672.14607
       674.43948
       671.55247
       603.28919
       667.65959
       662.95509
       799.48722
       711.93345
       716.76303
       664.33973
       589.07688
       710.35291
       676.78326
       810.21953
       700.22081
       713.88275
       726.78094
       668.62885
       575.12390
       590.62917
       689.75871
       686.78301
       656.74507
       691.30567
       670.21234
       686.56195
       614.62988
       714.88362
       570.29619
       662.24601
       663.78579
       601.89050
       634.39764
       648.21823
       595.55594
       665.60056
       737.42906
       673.22563
       709.50981
       782.32396
       769.83773
       676.01230
       712.62265
       679.07237
       556.10782
       519.74034
       662.01330
       660.02342
       603.57010
       655.34895
       679.71974
       658.90832
       671.58879
       717.63095
       597.19037
       546.20072
       754.04473
       732.73206
       610.44628
       631.27844
       712.81322
       648.50040
       671.64561
       640.64036
       665.89697
       610.84504
       621.09563
       589.08622
       658.43009
       619.30281
       587.19249
       584.99905
       642.50532
       589.70320
       637.25361
       659.20923
       635.11264
       617.82060
       617.54172
       652.16028
       648.72746
       650.66677
       672.34496
       642.99208
       687.98498
       594.49616
       736.08572
       719.53982
       645.96655
       617.68788
       635.14980
       675.31144
       710.48338
       699.95115
       683.42716
       660.61838
       607.01063
       572.07394
       626.49712
       601.99363
       627.21355
       660.72817
       637.76076
       629.98771
       556.02848
       759.54063
       596.64167
       613.69955
       598.59882
       690.65017
       705.01466
       582.95498
       644.51288
       616.11130
       551.42909
       643.10632
       546.60610
       631.71223
       631.77819
       673.05341
       643.23701
       528.08972
       769.98252
       646.56226
       643.29883
       572.23646
       684.86192
       671.83045
       590.53280
       617.92341
       631.44982
       629.70001
       629.70001
      346.200
      350.700
      349.400
      350.100
      349.033
      349.600
      348.900
      349.067
      349.100
      349.400
      349.400
      350.233
      348.667
      349.333
      349.200
      348.533
      349.133
      348.933
      348.567
      348.900
      349.400
      349.200
      349.333
      348.700
      349.333
      348.867
      348.867
      349.567
      348.467
      348.333
      348.700
      348.600
      348.233
      348.800
      348.600
      348.567
      348.600
      349.200
      348.533
      349.133
      348.800
      348.333
      348.433
      348.867
      348.667
      349.000
      348.400
      349.400
      348.900
      351.367
